/*--------------------------------*- C++ -*----------------------------------*\
| =========                 |                                                 |
| \\      /  F ield         | OpenFOAM: The Open Source CFD Toolbox           |
|  \\    /   O peration     | Version:  2112                                  |
|   \\  /    A nd           | Website:  www.openfoam.com                      |
|    \\/     M anipulation  |                                                 |
\*---------------------------------------------------------------------------*/
FoamFile
{
    version     2.0;
    format      ascii;
    arch        "LSB;label=32;scalar=64";
    class       volScalarField;
    location    "0.07";
    object      ddt0(k);
}
// * * * * * * * * * * * * * * * * * * * * * * * * * * * * * * * * * * * * * //

dimensions      [0 2 -3 0 0 0 0];

internalField   nonuniform List<scalar> 
12225
(
-0.000741561
0.000944194
-0.000178735
0.0029746
0.00545661
0.0201579
0.0261054
-0.0611134
0.139907
0.0398171
0.142705
0.0668272
0.123696
0.206216
0.221441
0.313331
0.188087
0.496897
-0.001241
0.00379572
-0.00274338
-0.015828
0.0039637
0.241225
-0.759616
0.367801
1.36012
-1.92656
1.84388
-0.797113
-2.99808
3.00525
-0.55624
-0.938494
0.831539
0.668658
-0.000185012
-8.73157e-05
0.00280912
-0.000889241
0.0116961
-0.00929933
-0.0669136
0.11456
-0.0707976
-0.0287316
0.167025
-0.153877
-0.0292849
0.124682
-0.0453364
0.208861
-0.419158
-0.354992
-4.56164e-05
-5.48343e-05
0.00130729
0.00210393
0.00244693
-0.00685992
-0.00207937
0.0248891
-0.0201859
0.010301
0.0172299
-0.0034697
0.00655646
0.00195419
0.0738862
0.0475715
-0.260785
0.0396906
-1.12151e-05
6.77709e-05
0.000769252
0.00196077
0.000789097
-0.000869692
0.0024548
0.0085873
-0.00161399
0.00594441
0.0066012
0.00912678
0.00819711
0.00265017
0.0338071
0.0390969
-0.0686294
0.0136174
-4.50287e-06
0.00013494
0.000632667
0.00163722
0.0010266
0.00136182
0.00304005
0.00540774
0.00313355
0.00568005
0.00686438
0.00950204
0.0101596
0.00751229
0.0187702
0.0360391
-0.0229067
0.0109305
-9.59165e-06
0.000168026
0.000614029
0.00147602
0.00146806
0.00227324
0.00345489
0.00490185
0.00489783
0.00646939
0.00788703
0.00995508
0.0113232
0.0111521
0.0166808
0.0264107
0.00116178
0.0177381
-1.59271e-05
0.000173287
0.000619082
0.00142046
0.00181498
0.00274271
0.00382914
0.00505816
0.00587192
0.00730765
0.00884185
0.0107017
0.0123383
0.0134731
0.0171908
0.0210949
0.0141397
0.022331
-2.36773e-05
0.000168496
0.000623859
0.00140137
0.00203803
0.00301868
0.00412468
0.00534602
0.00651327
0.00798731
0.00960567
0.0114201
0.0131913
0.0149112
0.0176814
0.0198275
0.01959
0.0236479
-4.24689e-05
0.000127486
0.000604923
0.00136491
0.00214588
0.00316542
0.00431471
0.00558201
0.00692079
0.00845234
0.0101239
0.0119305
0.0137644
0.0156672
0.0179127
0.0197555
0.021218
0.0236186
-8.47969e-05
7.8864e-05
0.000558348
0.00129535
0.00214809
0.00319387
0.00437777
0.00568671
0.00710627
0.00867043
0.0103554
0.0121383
0.0139648
0.0158461
0.0177935
0.0195439
0.0212032
0.0229423
-0.000109734
1.53473e-05
0.000471985
0.00118397
0.00205657
0.00310727
0.00430095
0.00562233
0.00705996
0.00861639
0.0102712
0.011996
0.013752
0.0155222
0.0172646
0.0188766
0.0203904
0.0218063
-0.000123557
-5.00676e-05
0.00036029
0.00103158
0.00189053
0.00292339
0.00410144
0.0054056
0.00682025
0.00833252
0.00991948
0.0115499
0.0131882
0.0148022
0.0163463
0.0177705
0.0190697
0.0202324
-0.000128143
-0.000115882
0.000216748
0.000813691
0.00161487
0.0025895
0.00370837
0.00494654
0.00628172
0.00769121
0.00914756
0.0106174
0.0120648
0.0134532
0.0147441
0.0159055
0.0169249
0.0177989
-0.00012261
-0.000168266
6.00928e-05
0.000537994
0.00122092
0.00207358
0.00306239
0.00415753
0.00533
0.00654979
0.00778554
0.00900253
0.0101653
0.0112396
0.0121944
0.0130068
0.0136668
0.0141747
-0.000106449
-0.000192444
-7.86964e-05
0.00023769
0.000732084
0.00137466
0.00213336
0.0029755
0.00386568
0.00477336
0.00566542
0.00650694
0.0072657
0.00791252
0.00842318
0.00878055
0.00897745
0.00901347
-7.935e-05
-0.000177352
-0.000166547
-3.46676e-05
0.000209789
0.00054852
0.000957028
0.00140667
0.0018691
0.00231326
0.00270579
0.00302086
0.00323164
0.00331612
0.0032547
0.00303443
0.00264641
0.00207233
-4.16827e-05
-0.000121375
-0.000187554
-0.000238009
-0.000276149
-0.000310182
-0.00035265
-0.000419592
-0.000529139
-0.000701429
-0.000954178
-0.00130743
-0.00177905
-0.00238566
-0.00313629
-0.00403967
-0.00510064
-0.00632348
3.84856e-06
-3.90534e-05
-0.000164839
-0.000388199
-0.00071256
-0.00113797
-0.00166396
-0.00229098
-0.00302097
-0.00385769
-0.00480608
-0.00587238
-0.00706172
-0.00837826
-0.00982704
-0.0114112
-0.0131324
-0.0149951
4.0785e-05
1.38762e-05
-0.000178897
-0.000548927
-0.00108673
-0.00178019
-0.00261743
-0.00358845
-0.00468568
-0.00590416
-0.007241
-0.00869467
-0.0102643
-0.0119491
-0.0137487
-0.0156621
-0.0176879
-0.0198265
6.14211e-05
1.81396e-05
-0.000245094
-0.000714756
-0.00136437
-0.00217411
-0.00312935
-0.00421794
-0.00543072
-0.00676141
-0.00820531
-0.00975859
-0.011418
-0.0131807
-0.0150436
-0.0170039
-0.0190579
-0.0212036
6.91042e-05
-1.25225e-05
-0.000335995
-0.000854482
-0.00153263
-0.00235292
-0.00330321
-0.00437392
-0.00555663
-0.00684659
-0.00823951
-0.00973072
-0.0113162
-0.0129921
-0.0147541
-0.0165992
-0.0185221
-0.0205205
6.43883e-05
-5.80976e-05
-0.000410884
-0.000922931
-0.00156302
-0.00232146
-0.00318995
-0.00416369
-0.00523139
-0.0063925
-0.00764493
-0.00898166
-0.0103991
-0.0118951
-0.0134618
-0.0150996
-0.0168023
-0.0185678
4.73659e-05
-9.34904e-05
-0.000439359
-0.000903117
-0.00146363
-0.0021201
-0.00286296
-0.00370347
-0.00461022
-0.00559575
-0.00666752
-0.00780532
-0.00900643
-0.0102885
-0.0116144
-0.0130047
-0.0144575
-0.0159628
1.49838e-05
-9.48302e-05
-0.00041298
-0.000805003
-0.00126414
-0.00180324
-0.00238787
-0.00310033
-0.00382078
-0.00460441
-0.00550439
-0.00644128
-0.00738436
-0.0085087
-0.00958994
-0.010703
-0.0119495
-0.0132556
4.24483e-06
-9.86539e-05
-0.000343851
-0.00065078
-0.000993784
-0.00143171
-0.00179736
-0.00246623
-0.00297984
-0.00352261
-0.00434462
-0.00519089
-0.0056565
-0.00690323
-0.00802294
-0.00846418
-0.00963129
-0.0111521
1.8301e-06
-8.02279e-05
-0.000254961
-0.000463669
-0.000658942
-0.00109865
-0.00104121
-0.00197216
-0.00222767
-0.00239824
-0.00334517
-0.00483401
-0.00373823
-0.0046793
-0.0102338
-0.00649228
-0.00573033
-0.0103799
8.25929e-06
-4.99885e-05
-0.000129255
-0.000232363
-0.00014859
-0.000881772
0.000357257
-0.00158589
-0.000993894
-0.000454038
-0.000799332
-0.00514402
-0.00332839
0.0133755
-0.0171894
-0.0395923
0.0450941
0.00551449
7.72718e-05
-8.98222e-05
0.000475568
0.000771377
0.0014812
0.00136977
0.0056847
0.00258529
0.00900631
0.00894558
0.0120403
0.0128403
0.0197016
-0.651523
1.9067
-2.33611
0.954151
0.472772
0.000492055
-0.000544683
0.000419146
-0.00162481
-0.00118112
-0.00551186
-0.00579951
-0.0134021
-0.0140876
-0.0259133
-0.0284328
-0.0410857
-0.0467394
-0.0550156
-0.058776
-0.114189
-0.070413
-0.0990862
-0.119708
-0.619141
-1.59329
-2.38653
-3.00171
-3.34752
-3.63529
-3.83243
-4.02086
-4.2675
-4.2652
-4.71437
-5.94768
-5.80034
-4.82083
-4.19577
-3.48393
-1.96233
-1.5348
-0.990317
0.0704918
0.623339
1.28156
1.96463
2.62496
3.23669
3.7034
3.94667
3.72358
2.9623
1.89859
0.959269
0.306152
-0.142871
-0.373204
-0.585119
-0.885818
-1.01883
-1.38189
-1.60781
-2.22505
-2.36006
-1.58997
-2.39826
-3.0936
-8.79261
-11.0009
-12.3626
-13.7944
-14.791
-15.7851
-16.5801
-17.4155
-18.1441
-18.906
-19.5393
-20.2646
-20.8318
-21.4737
-22.0129
-22.5527
-23.0421
-23.4914
-23.9122
-24.2796
-24.6271
-24.9183
-25.1829
-25.3882
-25.5466
-25.6431
-25.68
-25.6683
-25.6132
-25.5327
-25.4132
-25.25
-25.0627
-24.8708
-24.6519
-24.4107
-24.2394
-23.6917
-23.1355
-22.6117
-21.9948
-21.3479
-20.5537
-19.7275
-19.0315
-18.2528
-16.594
-16.0511
-15.5379
-14.4877
-13.4973
-12.5142
-11.4907
-10.4878
-9.4954
-8.51694
-7.57368
-6.66541
-5.80854
-5.00986
-4.28218
-3.62817
-3.04245
-2.52419
-2.09181
-1.74195
-1.45257
-1.26169
-1.07793
-0.655386
-0.722556
-0.59484
-0.834498
-1.14798
-1.79183
-3.09399
-3.28389
-3.58609
-4.12312
-4.81721
-7.16509
-15.6732
-17.1727
-16.4499
-14.8147
-12.7455
-9.99639
-8.18284
-6.47655
-1.80749
0.986631
3.65978
6.56709
9.39025
12.0297
14.455
16.568
18.4478
20.1029
21.8239
23.0236
23.7738
24.6393
25.1394
25.2975
25.1523
24.999
24.3641
23.5216
22.6726
21.4359
19.9561
18.8578
18.0312
17.5646
17.98
19.0216
20.1002
21.3679
21.7988
19.9499
16.4813
12.3941
8.32945
4.62666
1.74385
-0.389231
-1.61394
-2.35288
-2.86545
-2.75297
-2.47812
-1.83218
-1.27623
0.0544499
-0.353816
-0.703849
-1.37413
-1.73191
-1.08627
-0.526105
-1.0454
-2.14033
-2.88748
-3.69409
-5.07973
-6.16908
-4.91913
-4.08614
-3.68463
-2.72733
-2.42301
-1.86025
-1.24986
-0.836073
-0.0882047
0.688934
1.62953
2.7148
3.67697
4.65119
5.17734
5.51766
5.49037
4.21002
2.76569
1.49968
0.497297
-0.236258
-0.260978
-1.17774
-1.91416
-2.75745
-4.73415
-7.89415
-9.52075
-7.66107
-16.1568
-14.0609
-10.9875
-15.3282
-13.7946
-12.7185
-12.9955
-12.1252
-11.9545
-11.4603
-11.4105
-11.1683
-12.6774
-13.3281
-14.7914
-15.8328
-17.234
-18.4845
-19.8189
-21.1109
-22.3914
-23.6408
-24.8557
-26.0319
-27.1626
-28.2389
-29.2485
-30.1768
-31.0126
-31.7511
-32.4007
-32.972
-33.466
-33.8555
-34.1064
-34.266
-34.3161
-34.3281
-34.344
-34.0404
-33.9739
-33.806
-33.471
-33.0679
-32.5429
-31.8977
-31.162
-30.359
-29.4619
-28.4393
-27.3532
-26.1657
-24.8344
-23.4402
-21.9916
-20.4637
-18.8838
-17.2689
-15.6254
-13.965
-12.3135
-10.6896
-9.08775
-7.52464
-6.04802
-4.5772
-3.32061
-2.35106
-1.28845
-0.665046
-0.430375
-0.481997
-0.45011
-0.262538
-0.25957
-0.42951
-0.5018
-0.510316
-0.705058
-2.29
-3.48164
-4.52006
-6.98131
-8.00101
-9.36205
-9.83029
-9.63433
-8.58384
-5.54235
-3.24509
-0.935335
1.88846
3.93451
6.55187
9.99735
13.5352
16.84
19.936
22.7021
25.1801
27.5923
29.7942
31.8996
34.4831
36.6157
38.5778
40.237
41.737
43.3292
45.4097
46.6503
47.1294
47.9606
48.5617
47.9682
47.715
48.0798
47.1538
45.8553
45.4291
42.6654
37.9891
34.6705
28.8197
20.4678
15.5083
13.4821
11.5196
10.8212
10.4189
10.1453
10.8472
10.5253
9.64989
9.63701
9.70119
9.38475
8.62072
-0.167563
-0.113285
0.697459
2.84528
7.03089
8.50451
9.10791
8.0198
7.76683
6.46276
5.1193
3.83644
2.48639
1.43867
0.428368
0.193415
-0.161562
-0.242901
-0.170012
-0.0906707
0.121889
0.443972
0.906577
1.54338
2.30678
3.12732
3.89205
4.39068
4.30928
3.96341
2.5282
1.07539
-1.14271
-1.7196
-2.08429
-4.95723
-6.86686
-11.7147
-19.2356
-25.0592
-31.2187
-16.2746
-10.0776
-12.0341
-12.9178
-11.8379
-10.6414
-9.57479
-8.56802
-8.25997
-9.21618
-10.4243
-12.4303
-14.5945
-15.8687
-17.4185
-18.9375
-20.3992
-21.8817
-23.3096
-24.7193
-26.088
-27.4191
-28.7065
-29.9471
-31.1377
-32.2758
-33.358
-34.3785
-35.3306
-36.2043
-36.9945
-37.7065
-38.339
-38.8897
-39.3512
-39.7175
-39.9938
-40.1833
-40.3084
-40.3672
-40.2384
-39.9753
-39.5832
-39.0504
-38.3908
-37.5951
-36.6687
-35.619
-34.443
-33.1343
-31.6905
-30.1269
-28.4004
-26.5007
-24.4788
-22.345
-20.0961
-17.7638
-15.3368
-12.881
-10.3774
-7.92168
-5.36115
-2.98841
-0.424706
2.18795
4.97074
7.54113
9.06056
11.9131
13.5429
15.1073
16.5158
17.7729
18.7735
19.543
20.1165
20.6249
21.4005
21.314
20.1416
17.8608
17.5793
20.4135
20.0865
18.6105
17.0243
15.3585
13.3645
11.8053
11.7923
10.5852
9.74545
8.98792
8.57048
9.25326
10.1558
11.2567
12.7288
14.3987
16.5023
19.1027
22.0246
25.0942
28.8516
32.7444
36.3235
40.3533
44.2056
47.9747
51.996
55.7085
58.6376
61.5663
64.0761
65.0154
65.6072
66.3848
65.7952
64.3081
63.1441
61.1004
57.9208
54.0022
48.3134
42.2358
35.5987
28.3514
22.2705
18.3249
14.811
12.1537
10.5269
9.17697
8.73733
8.2448
8.75182
9.21733
9.9215
-0.0073849
1.05157
3.10671
6.45272
6.48569
5.37365
3.09195
1.3475
-1.01274
-2.27302
-2.94406
-3.15657
-3.17062
-3.11089
-2.96254
-2.78146
-2.59286
-2.36692
-2.07351
-1.70675
-1.32268
-0.901451
-0.392235
0.2194
0.910913
1.62236
2.26421
2.61801
2.41487
1.45889
-0.400285
-2.8604
-4.57476
-5.25016
-8.75143
-12.0908
-21.3518
-35.3528
-51.1308
-28.0233
-10.3156
-7.3666
-9.23466
-12.1031
-10.3451
-9.66707
-8.69214
-8.5014
-9.04106
-10.0956
-11.6854
-13.3692
-15.2134
-16.9482
-18.5659
-20.2162
-21.8217
-23.3885
-24.9271
-26.4288
-27.8982
-29.3313
-30.7254
-32.075
-33.3727
-34.6103
-35.7896
-36.9131
-37.9824
-38.9962
-39.9325
-40.7688
-41.5227
-42.188
-42.7597
-43.23
-43.5901
-43.8391
-43.9737
-44.0007
-43.9052
-43.6317
-43.1788
-42.5766
-41.8188
-40.9032
-39.8426
-38.6425
-37.3013
-35.8189
-34.2059
-32.4374
-30.5111
-28.4233
-26.1053
-23.6025
-20.9252
-17.9233
-15.1438
-11.8106
-8.49495
-5.08911
-1.89257
1.68251
4.91232
7.30184
11.5422
15.122
18.707
22.3636
26.7028
29.6586
32.5496
35.3222
38.0029
40.533
42.8773
44.9785
46.369
48.5794
51.5727
54.0794
56.9848
57.5585
56.3874
58.235
57.1125
55.2308
52.4365
48.6319
42.1424
31.9485
26.709
22.1038
17.5661
13.1414
10.3002
7.74333
5.76288
4.65098
4.17794
4.75842
6.35197
8.84873
12.2448
15.6415
19.1656
24.1785
30.1471
36.4969
42.98
49.652
56.0085
61.6173
66.8401
71.3953
74.4387
76.4621
77.8862
77.9075
76.5571
74.7041
72.3403
68.9493
64.5632
59.0988
53.4246
47.2342
40.0081
32.359
26.2268
21.1965
16.7728
13.1088
10.6943
9.22251
8.51212
8.41784
8.81279
9.76692
0.619568
0.932078
1.90539
0.0797508
-0.984702
-3.35241
-5.04752
-5.83028
-6.19935
-6.1763
-6.00198
-5.69952
-5.14306
-4.79787
-4.57806
-4.42581
-4.30388
-4.20168
-4.0812
-3.82689
-3.46367
-2.9887
-2.40521
-1.73679
-1.03977
-0.401667
0.0370726
0.0258145
-0.744299
-2.44679
-4.85
-6.71407
-8.0238
-12.2869
-17.5195
-31.6018
-56.4447
-58.139
-28.3617
2.22476
-2.24979
-6.63299
-10.6983
-11.2861
-9.57964
-8.88729
-8.46336
-8.90433
-9.89772
-11.2882
-12.9669
-14.7381
-16.5631
-18.3516
-20.1085
-21.846
-23.5423
-25.1968
-26.8112
-28.3899
-29.9318
-31.4356
-32.8971
-34.3084
-35.6581
-36.94
-38.1575
-39.3195
-40.4329
-41.4884
-42.4551
-43.308
-44.0613
-44.7118
-45.2565
-45.6916
-46.0182
-46.2353
-46.3311
-46.2832
-46.0723
-45.7163
-45.1828
-44.4606
-43.5449
-42.4328
-41.128
-39.6349
-37.9472
-36.1295
-34.2339
-32.1929
-30.0289
-27.9042
-25.3475
-22.7438
-19.6376
-15.7097
-13.471
-9.24368
-5.12696
-0.299974
3.37629
7.20424
10.9861
15.0482
19.2583
23.5196
27.9243
32.5678
38.0537
42.7239
47.4701
51.947
56.4108
60.9701
65.6477
70.4454
75.5643
79.5834
84.5252
89.0213
92.9914
95.8067
95.7306
89.8447
88.795
87.192
84.2025
79.4442
73.1491
69.6901
61.4295
51.5797
40.7667
29.6563
19.4407
10.2181
2.17815
-3.9516
-8.80006
-11.2412
-10.9137
-9.45705
-6.76428
-2.72591
2.75845
8.84264
15.9364
23.7578
31.9811
40.8836
49.6664
57.8782
65.5604
72.3761
77.7159
81.6229
84.3232
85.3244
84.6523
82.8186
80.0163
76.2538
71.5597
65.9173
60.0985
53.8918
47.0607
39.6691
32.9575
27.0448
21.9318
17.3969
13.9736
11.4914
10.0472
9.33536
9.34016
9.70159
1.73079
1.40671
1.01021
-2.02302
-6.06372
-7.74077
-8.44246
-8.46591
-8.28557
-7.65542
-7.17028
-6.81562
-6.66856
-6.53914
-6.42787
-6.32293
-6.21888
-6.09106
-5.90825
-5.64445
-5.3237
-4.92645
-4.45373
-3.88431
-3.21899
-2.84782
-2.92079
-3.65208
-5.16729
-7.32484
-9.64218
-11.5387
-15.6741
-23.0058
-40.4634
-62.1052
-57.9558
-32.4351
8.77363
4.95615
-2.29046
-10.1077
-11.9559
-10.7795
-9.33802
-8.57867
-8.51692
-9.17963
-10.306
-11.7796
-13.4732
-15.2722
-17.1201
-18.9639
-20.7869
-22.5863
-24.3456
-26.0599
-27.7283
-29.3584
-30.9467
-32.4917
-33.9885
-35.429
-36.8035
-38.1082
-39.343
-40.5097
-41.6131
-42.655
-43.6202
-44.491
-45.2483
-45.8859
-46.3952
-46.7614
-46.9859
-47.0863
-47.0437
-46.9672
-46.7483
-46.4002
-45.8745
-45.1525
-44.2243
-43.0795
-41.7092
-40.0807
-38.1005
-35.9622
-33.5411
-31.3178
-28.7279
-27.0766
-24.2332
-21.4469
-18.493
-15.2172
-11.9917
-8.11489
-3.99698
1.04195
5.28844
9.63949
14.1042
18.8063
23.6525
28.6118
33.627
38.9546
44.269
50.1708
56.0013
62.0476
68.1484
74.3377
80.8716
87.5453
94.1362
100.052
103.129
108.377
113.534
118.069
122.121
129.696
133.228
134.518
133.669
130.475
125.061
116.815
105.756
92.1325
76.3205
59.3348
42.2607
25.6016
9.96631
-3.32698
-14.9376
-22.8383
-27.0656
-28.954
-28.0597
-24.6927
-19.6591
-12.2835
-3.94753
5.39508
15.3904
26.3453
37.6749
48.5827
58.1286
67.055
74.8609
80.9371
85.3575
87.7673
88.2429
87.0043
84.288
80.4179
75.6093
69.9044
63.946
57.7587
51.2909
44.357
37.7778
31.674
26.2753
21.4234
17.4221
14.3731
12.2099
10.9434
10.3622
10.2681
-2.95175
-1.71002
-6.45954
-8.73152
-9.9733
-10.1711
-9.92121
-9.47314
-8.95471
-8.54444
-8.15245
-7.82874
-7.59987
-7.46059
-7.38736
-7.34744
-7.32078
-7.26494
-7.14852
-6.94763
-6.6146
-6.1714
-5.78446
-5.62627
-5.90319
-5.98376
-6.74375
-8.20053
-10.2405
-12.6519
-15.4683
-18.876
-26.6791
-41.0142
-59.6501
-63.4334
-26.2609
1.22269
8.78023
3.44717
-8.3936
-13.9512
-11.6977
-10.2896
-8.90463
-8.25946
-8.39291
-9.13912
-10.3003
-11.7664
-13.4296
-15.2048
-17.0372
-18.876
-20.6949
-22.4944
-24.2542
-25.9706
-27.6439
-29.2739
-30.859
-32.3963
-33.8802
-35.3007
-36.6453
-37.908
-39.094
-40.1986
-41.2321
-42.2041
-43.1287
-43.9819
-44.7908
-45.4872
-46.041
-46.4036
-46.545
-46.4251
-45.9159
-45.8355
-45.6589
-45.3258
-44.8131
-44.1134
-43.2265
-42.1388
-40.8619
-39.2552
-37.4465
-34.9563
-32.951
-30.4721
-28.0948
-25.7704
-23.0696
-20.222
-17.2484
-14.2572
-10.883
-7.24963
-3.46403
0.153234
4.45029
8.91419
13.5112
18.2798
23.3035
28.5581
33.8471
39.4755
45.3461
51.4662
57.791
64.3023
71.0064
78.2603
85.3557
92.5762
99.7928
106.813
115.617
123.824
131.676
139.336
146.823
153.779
159.361
163.29
165.123
164.343
160.699
153.466
142.941
129.181
112.268
93.569
73.8813
53.4162
32.9899
14.3181
-3.44975
-17.1945
-28.11
-36.7821
-40.1903
-40.335
-38.5435
-32.5036
-25.5162
-15.9637
-5.48307
6.62713
19.9946
33.668
44.9564
55.5776
66.77
75.1821
81.0349
84.9002
86.4255
86.1041
84.0326
80.3438
76.1223
70.6995
64.9963
59.1168
53.1358
46.8343
40.714
34.8542
29.5269
24.659
20.4641
17.0984
14.4922
12.7254
11.6708
11.0862
-4.90464
-7.40571
-9.88881
-10.889
-11.013
-10.7757
-10.298
-9.68017
-9.04329
-8.50273
-8.06521
-7.75063
-7.57595
-7.50983
-7.5371
-7.63292
-7.74631
-7.84091
-7.88303
-7.87429
-7.82521
-7.79939
-7.79161
-7.89958
-8.28321
-9.11857
-10.6823
-12.5122
-14.7129
-17.2075
-21.1636
-27.6436
-39.1199
-54.8292
-60.9216
-31.299
-5.89104
10.8477
7.09529
-5.64715
-14.2914
-13.6227
-11.1037
-9.47087
-8.24463
-7.77755
-8.02403
-8.79433
-9.92656
-11.3267
-12.9122
-14.5935
-16.3192
-18.0685
-19.811
-21.5333
-23.2216
-24.8703
-26.4769
-28.0396
-29.5562
-31.0229
-32.4301
-33.7679
-35.0209
-36.1765
-37.2502
-38.2182
-39.1523
-40.0121
-40.8177
-41.4507
-42.3331
-43.134
-43.782
-44.218
-44.3814
-44.2418
-43.6216
-43.4351
-43.0734
-42.58
-41.886
-40.9975
-39.9355
-38.6499
-37.3223
-35.5242
-34.1441
-32.1164
-30.4471
-28.1862
-25.8326
-23.3724
-20.7266
-17.9197
-14.9122
-11.5669
-8.31142
-4.93928
-1.34707
2.2528
6.03538
9.95644
13.9733
18.1319
22.524
27.2562
32.7782
37.9906
43.3764
49.0534
55.0715
61.3661
67.8999
74.6689
82.0625
89.7708
97.7109
105.856
114.376
122.983
131.612
140.312
148.778
156.744
163.761
169.314
172.848
173.546
171.204
164.956
155.187
142.384
126.554
108.153
88.3662
68.3309
48.8777
31.7498
14.2281
1.05769
-10.8016
-25.5966
-29.2129
-32.6568
-37.7276
-37.0985
-34.2338
-28.7949
-21.136
-11.7353
0.523341
18.1386
24.6848
30.5316
50.5348
61.7729
69.3117
74.9504
79.0392
80.1895
79.489
76.2899
72.4318
67.5729
62.7777
57.7165
52.5723
47.171
41.8046
36.5145
31.5587
26.91
22.786
19.3025
16.4803
14.376
12.9483
11.9671
-5.82428
-8.98738
-11.1764
-11.7906
-11.6098
-11.1059
-10.3879
-9.66808
-9.02337
-8.48158
-8.03823
-7.74611
-7.59272
-7.54918
-7.61359
-7.7635
-7.96681
-8.1921
-8.42428
-8.65888
-8.91574
-9.23311
-9.60921
-10.0735
-10.4725
-12.0105
-13.7036
-15.6153
-17.9716
-21.306
-26.6327
-35.4244
-47.7363
-55.5729
-34.7007
-12.4252
4.94874
7.91748
0.635856
-13.3783
-14.6634
-12.2947
-9.97003
-8.37854
-7.37277
-7.06513
-7.36715
-8.10813
-9.15432
-10.4353
-11.858
-13.3594
-14.9202
-16.5055
-18.0908
-19.6601
-21.2004
-22.7037
-24.1657
-25.584
-26.9587
-28.2859
-29.5273
-30.6937
-31.7663
-32.6894
-33.5047
-34.1715
-35.0056
-35.8057
-36.5278
-36.9255
-37.7756
-38.4511
-39.0076
-39.3677
-39.5231
-39.5217
-39.4794
-39.0683
-38.4192
-37.5808
-36.5299
-35.2615
-33.867
-31.9909
-30.5342
-28.3606
-26.3716
-24.0363
-21.8045
-19.4747
-17.0971
-14.6919
-12.24
-9.73865
-7.18074
-4.56403
-1.98553
0.542236
2.75811
5.43595
8.28032
11.2816
14.4064
17.6904
21.1884
24.908
28.6683
32.8456
37.3542
42.2328
47.5141
53.1796
59.2198
65.6736
72.5153
79.6921
87.1369
94.8334
102.698
110.952
119.317
127.936
136.392
144.519
151.848
157.657
161.321
161.834
159.063
151.953
141.116
126.203
109.557
91.5394
73.5631
56.8646
41.5727
29.2412
16.7196
8.45969
0.442006
-10.41
-13.2547
-15.9856
-22.0845
-24.4073
-24.8634
-23.5592
-20.6422
-15.8932
-8.86219
0.181819
8.01863
14.6038
27.5546
41.9562
46.3239
51.5962
63.571
66.618
67.5389
67.2414
65.3415
62.1723
57.5672
53.5773
49.6065
45.4138
41.099
36.6605
32.3258
28.113
24.2528
20.8267
17.9717
15.6812
14.0043
12.7473
-6.85307
-11.535
-13.0921
-13.1979
-12.5631
-11.6442
-10.6885
-9.82165
-9.09743
-8.52944
-8.14728
-7.88113
-7.68153
-7.64815
-7.74441
-7.94709
-8.23722
-8.59739
-9.00434
-9.39264
-9.79187
-10.176
-10.7067
-11.5383
-12.5809
-14.1736
-15.4457
-17.3409
-20.0414
-24.2312
-31.0831
-40.7691
-47.3813
-35.7169
-13.1108
-3.75752
7.99891
3.50582
-10.0706
-14.3036
-12.9946
-10.4653
-8.42254
-7.04462
-6.25672
-6.04977
-6.32475
-6.9335
-7.72492
-8.81271
-10.0275
-11.3284
-12.6819
-14.0594
-15.4391
-16.8037
-18.138
-19.4312
-20.6767
-21.8683
-23.0173
-24.1297
-25.0678
-25.8736
-26.5576
-27.048
-27.4335
-27.6649
-28.4558
-29.1905
-29.9617
-30.7505
-31.3156
-31.7201
-31.9496
-31.9544
-31.7255
-31.2694
-30.5231
-29.4939
-28.2651
-26.8929
-25.3853
-23.5619
-21.6253
-19.9843
-18.0352
-16.0439
-14.1971
-12.7538
-10.8704
-8.91609
-6.97244
-5.06413
-3.18492
-1.33226
0.493551
2.28877
4.03707
5.76659
7.61357
9.3923
11.2623
13.2597
15.3838
17.6597
20.1238
22.8
25.6771
28.8403
32.3088
36.1009
40.2463
44.7624
49.6568
54.9414
60.5716
66.5536
72.7302
79.2048
85.9965
93.3055
100.767
108.701
116.552
124.169
131.019
136.033
138.552
137.759
132.217
122.55
109.921
93.8258
77.467
61.0796
46.0239
33.0193
21.6399
13.2072
5.51153
1.81737
-3.57559
-6.58008
-8.36323
-11.4162
-13.2767
-14.2453
-14.6211
-14.3682
-13.2844
-11.1297
-8.05286
-3.94788
1.00927
5.08889
11.5479
20.4628
23.9346
30.6108
40.8044
43.4541
49.3737
51.4776
51.8036
50.8362
50.2937
47.0768
44.5565
41.8207
38.791
35.421
31.9087
28.3031
24.8577
21.652
18.8949
16.5517
14.7637
13.3429
-7.39351
-12.7742
-14.3139
-14.2447
-13.3292
-12.1463
-11.0066
-10.0515
-9.30673
-8.74397
-8.32532
-8.09518
-8.01309
-8.0349
-8.17111
-8.40889
-8.72859
-9.12308
-9.55648
-10.0228
-10.4481
-11.172
-11.8855
-12.6722
-13.5889
-14.4059
-15.7776
-17.8567
-21.1149
-26.1503
-32.4949
-36.8149
-33.5556
-15.9264
-6.73631
5.02798
2.84776
-5.23877
-12.2957
-12.4826
-10.479
-8.25028
-6.54603
-5.40058
-4.71085
-4.38813
-4.67622
-5.36846
-6.48273
-7.48439
-8.53176
-9.62017
-10.7459
-11.8799
-13.0005
-14.091
-15.1355
-16.1227
-17.0456
-17.8464
-18.4614
-18.6613
-18.9516
-19.1978
-19.2813
-19.2035
-19.5735
-19.8692
-20.2689
-20.6958
-21.126
-21.4241
-21.5543
-21.5127
-21.311
-20.9216
-20.3265
-19.5149
-18.4402
-17.1778
-15.8133
-14.3779
-12.6764
-10.9244
-9.38309
-7.64631
-5.89271
-4.14117
-2.40799
-0.553168
1.16643
2.82631
4.41789
5.93591
7.3845
8.76391
10.0703
11.3003
12.4531
13.5429
14.6095
15.6655
16.7733
17.9635
19.2464
20.6376
22.1606
23.8447
25.7076
27.779
30.0701
32.5779
35.3327
38.389
41.7737
45.5174
49.569
53.8755
58.3536
63.3741
68.7186
74.7739
81.0266
87.9924
94.9228
101.439
107.071
110.267
110.344
106.617
98.6136
86.8947
73.5086
57.8988
43.4145
28.8866
17.2731
8.6544
1.1788
-2.93312
-6.88637
-8.81252
-9.0351
-10.229
-10.5055
-10.63
-10.519
-10.1643
-9.55568
-8.76997
-7.71429
-6.25357
-4.55051
-2.62223
0.0665961
2.17105
5.08063
9.84881
11.2564
14.7933
18.6979
21.582
29.5765
32.2933
36.2461
37.6853
38.3145
39.2699
37.7322
36.7903
35.2281
33.0623
30.5052
27.6286
24.7095
21.8437
19.2891
17.0202
15.2222
13.737
-8.13579
-14.4978
-15.8803
-15.5171
-14.1395
-12.5478
-11.1481
-10.097
-9.37427
-8.90826
-8.6295
-8.48997
-8.46784
-8.55362
-8.74079
-9.00124
-9.34553
-9.72045
-10.0127
-10.5082
-10.9623
-11.3873
-11.8401
-12.3509
-12.9799
-13.8575
-15.2482
-17.4873
-20.895
-25.1885
-28.6573
-28.1667
-17.5812
-8.09051
0.807236
3.08392
0.0787387
-8.70156
-10.8016
-9.47435
-7.4607
-5.60496
-4.16785
-3.06163
-2.78052
-3.16753
-3.5146
-4.06651
-4.68974
-5.45681
-6.24251
-6.94728
-7.75309
-8.56975
-9.36423
-10.1191
-10.8149
-11.4469
-12.0728
-12.4424
-12.629
-12.7973
-12.533
-12.1069
-11.986
-11.7029
-11.5799
-11.4838
-11.4283
-11.372
-11.3016
-11.1421
-10.8432
-10.4067
-9.84181
-9.13312
-8.2685
-7.24656
-6.10284
-4.82134
-3.42462
-1.9346
-0.278192
1.3055
2.93212
4.6418
6.35789
8.07056
9.77335
11.4702
13.096
14.6388
16.087
17.4391
18.7005
19.8712
20.9433
21.9093
22.7644
23.5074
24.1525
24.7326
25.2986
25.8837
26.5003
27.1544
27.8559
28.631
29.508
30.5013
31.6201
32.8382
34.1776
35.7436
37.5786
39.7436
42.0271
44.5331
47.3499
50.7486
54.4797
59.125
64.0032
69.7873
75.4116
79.8024
83.084
83.2744
80.9022
73.8585
64.4026
50.7587
37.3966
23.1701
12.5889
5.04132
-1.78691
-5.08589
-9.64302
-10.706
-12.1812
-13.5042
-13.5188
-13.2036
-12.5145
-11.496
-10.307
-9.0245
-7.66896
-6.28878
-4.91292
-3.46319
-1.9951
-0.668634
1.02683
2.1746
3.42635
5.49861
5.85331
7.06277
6.8961
7.11
9.59591
13.9688
20.6624
23.1853
26.2641
28.7282
30.7557
31.0479
30.8431
29.9283
28.3934
26.3157
23.9921
21.5446
19.2707
17.163
15.4422
13.9705
-8.45356
-15.7639
-17.1523
-16.6222
-14.7985
-12.7473
-11.0297
-9.86615
-9.16292
-8.79157
-8.64785
-8.65211
-8.75973
-8.948
-9.19224
-9.54994
-9.84418
-10.0512
-10.4264
-10.7282
-10.9742
-11.1805
-11.3815
-11.637
-12.0547
-12.8068
-14.1095
-16.1133
-18.6578
-20.8468
-21.0481
-17.719
-9.31335
-0.00393216
2.51919
1.66541
-4.11214
-7.57902
-7.3633
-5.72557
-4.00002
-2.53128
-1.37632
-1.42661
-1.31074
-1.32744
-1.48744
-1.86556
-2.28484
-2.81864
-3.41664
-4.11725
-4.71181
-5.2468
-5.72768
-6.14816
-6.4688
-6.60691
-6.4423
-6.21561
-5.67784
-5.00319
-4.50114
-3.77038
-3.23946
-2.75324
-2.3295
-1.93529
-1.56503
-1.21286
-0.867271
-0.483634
-0.0261986
0.51106
1.1317
1.85201
2.68992
3.66017
4.76091
6.0263
7.42312
8.93335
10.5542
12.2356
13.825
15.6537
17.4573
19.2817
21.1066
22.9122
24.6622
26.3253
27.877
29.3095
30.6289
31.8354
32.9161
33.8566
34.6436
35.2613
35.7047
36.0045
36.2163
36.3821
36.5163
36.6183
36.686
36.7452
36.8265
36.9555
37.1222
37.2945
37.4646
37.8023
38.3279
38.97
39.6117
40.5306
41.6767
43.3701
45.397
48.4471
51.792
55.4982
58.9118
60.7331
61.0248
57.9371
52.4916
41.8112
30.0825
19.0798
10.3147
4.21591
-2.04171
-5.21575
-9.7309
-11.0126
-12.7148
-14.397
-15.1746
-15.4156
-15.2038
-14.571
-13.573
-12.2873
-10.783
-9.13922
-7.43306
-5.70157
-4.04824
-2.45227
-0.930435
0.323636
1.63318
2.43281
3.04069
3.68402
3.30779
3.03738
1.58722
-0.33207
-2.10185
-0.983129
3.40069
10.9171
14.0779
17.6759
22.7012
24.7246
26.0254
26.3703
25.8719
24.6172
22.9196
20.9319
18.9861
17.0954
15.5126
14.1101
-8.78649
-17.0164
-18.4926
-17.8315
-15.4748
-12.739
-10.5072
-9.23253
-8.54526
-8.20643
-8.14896
-8.26899
-8.492
-8.78146
-9.10955
-9.50607
-9.79163
-9.96455
-10.2461
-10.395
-10.4429
-10.4171
-10.3612
-10.3553
-10.5262
-11.0452
-12.0614
-13.5351
-14.9981
-15.4414
-13.7693
-9.86111
-1.6587
1.248
2.37532
0.566157
-3.04623
-3.7237
-2.74253
-1.36572
-0.167647
0.60365
0.775503
1.05461
1.23749
1.16985
0.758853
0.351765
-0.0740598
-0.528186
-0.993024
-1.44463
-1.82252
-2.11967
-2.33056
-2.45125
-2.49843
-2.2536
-1.60927
-0.755836
0.0488542
1.13308
2.0812
2.96527
3.72461
4.41122
5.0522
5.65697
6.22614
6.76233
7.2796
7.80842
8.37669
8.99824
9.6862
10.4617
11.3477
12.361
13.5163
14.8249
16.277
17.8661
19.594
21.4686
23.0756
25.1396
27.1521
29.2201
31.3065
33.3812
35.4104
37.3522
39.1651
40.8278
42.3447
43.7201
44.9403
45.9824
46.8278
47.4539
47.8422
48.0192
48.0532
47.9965
47.8757
47.6871
47.4219
47.1097
46.7722
46.4456
46.0737
45.6568
45.1493
44.7111
44.1469
43.5568
42.8416
42.2831
41.7145
41.6128
41.8155
42.9451
43.7526
45.4416
45.8769
44.6869
40.7797
34.5829
23.4872
15.9784
8.04221
3.51198
-1.34147
-3.83425
-8.12867
-9.4583
-11.0718
-13.4235
-14.5123
-15.306
-15.681
-15.6615
-15.3233
-14.6923
-13.7881
-12.646
-11.2886
-9.74756
-8.07716
-6.30643
-4.55138
-2.83899
-1.21115
0.147542
1.36056
2.10257
2.52676
2.62085
1.91583
0.818647
-1.02953
-3.68777
-7.2708
-9.74692
-8.85726
-3.67845
4.9613
8.59139
12.9445
18.5234
21.1849
22.6831
23.1976
22.7617
21.6908
20.1756
18.578
16.9338
15.524
14.2254
-8.94962
-18.1216
-19.7519
-19.0099
-16.2174
-13.0505
-10.5064
-8.80427
-7.78542
-7.204
-7.01942
-7.09794
-7.31857
-7.62073
-7.97008
-8.32451
-8.66894
-8.87581
-8.97749
-9.04983
-8.94251
-8.72905
-8.46277
-8.28176
-8.29606
-8.64047
-9.38197
-10.4008
-11.2948
-11.4426
-10.3656
-6.94086
-1.03311
1.50825
2.3597
0.580683
0.930929
1.72042
2.69691
3.48075
4.07902
4.71673
4.48319
4.46131
4.05695
3.68339
3.23903
2.76721
2.29183
1.8298
1.36702
0.97607
0.692644
0.537042
0.559121
0.825238
1.226
1.63639
2.4052
3.5124
4.62073
5.78276
6.89038
7.90874
8.82376
9.65412
10.4263
11.1533
11.8396
12.4901
13.1181
13.7472
14.4015
15.0994
15.8592
16.7045
17.6612
18.751
19.9909
21.3911
22.952
24.6754
26.575
28.7114
30.4682
32.722
34.9826
37.3415
39.7332
42.114
44.4522
46.7052
48.8154
50.7406
52.483
54.0555
55.4454
56.6252
57.5842
58.3081
58.7756
59.0159
59.1155
59.1413
59.1232
59.0553
58.9267
58.7591
58.5405
58.3105
57.9304
57.4621
56.6857
55.7784
54.4103
52.9292
50.8365
48.7955
46.1962
44.1823
41.8763
40.7649
38.77
38.7677
34.4123
28.3971
19.8638
13.206
7.897
4.05903
0.429876
-2.18799
-5.84668
-7.02718
-8.54985
-10.8526
-12.4077
-13.4435
-14.1934
-14.6551
-14.8717
-14.8405
-14.5787
-14.1107
-13.4477
-12.5941
-11.5562
-10.3348
-8.94552
-7.40204
-5.78682
-4.13651
-2.51021
-1.06363
0.184327
1.01945
1.5071
1.58266
0.915494
-0.452345
-2.44015
-5.18952
-9.16452
-13.5169
-15.8997
-13.9792
-7.28531
1.92653
5.76647
10.2287
16.5443
19.0732
20.5435
20.9193
20.4586
19.4099
18.1609
16.7728
15.5502
14.3733
-9.02512
-19.1549
-21.0733
-20.4475
-17.624
-14.2608
-11.3118
-9.05809
-7.45603
-6.22384
-5.54374
-5.30352
-5.26783
-5.38705
-5.60527
-5.85784
-6.0932
-6.26935
-6.33999
-6.3564
-6.31278
-6.0578
-5.86932
-5.74873
-5.81151
-6.13843
-6.7318
-7.44325
-7.92187
-7.6342
-5.99216
-3.13736
0.543297
2.99734
3.94522
5.67382
7.11581
7.94963
8.04109
7.80193
7.93752
7.64754
7.76266
7.57344
7.17096
6.61771
5.9632
5.35911
4.82681
4.41684
4.05536
3.61396
3.30732
3.16456
3.21801
3.50477
4.05302
4.67428
5.47182
6.4724
7.57033
8.71522
9.8467
10.9124
11.892
12.7921
13.6327
14.4272
15.1828
15.9072
16.6143
17.3243
18.0589
18.8379
19.6814
20.613
21.659
22.8435
24.1846
25.6938
27.3758
29.2346
31.2817
33.5458
36.0519
37.9201
40.4539
43.0318
45.6632
48.2734
50.8338
53.3141
55.6476
57.7764
59.7013
61.449
63.0153
64.3776
65.543
66.5209
67.2991
67.9075
68.4445
68.9746
69.5341
70.1116
70.6949
71.2581
71.7366
72.1193
72.2502
72.1903
71.3035
70.121
67.9826
65.5557
61.6602
57.7586
52.2498
47.8163
42.5126
38.9467
34.6698
24.4593
17.1894
11.9648
8.0054
4.27146
1.84854
-0.78068
-2.20401
-4.98126
-5.84129
-7.67533
-9.4601
-10.7113
-11.661
-12.3758
-12.9275
-13.3052
-13.5164
-13.5572
-13.4354
-13.1658
-12.7606
-12.2075
-11.5099
-10.6563
-9.63697
-8.45674
-7.16177
-5.766
-4.31473
-2.93086
-1.6921
-0.769164
-0.160144
0.105427
-0.27598
-1.50965
-3.4287
-6.00054
-9.74011
-14.6248
-18.9896
-20.197
-16.4118
-7.91157
0.979475
4.66408
9.5048
15.7913
17.9825
19.1832
19.3152
18.7193
17.81
16.676
15.6405
14.5913
-8.83998
-19.6839
-22.1615
-21.9568
-19.7734
-16.7582
-13.6916
-10.8977
-8.51919
-6.46387
-4.93298
-3.97456
-3.35936
-2.85903
-2.55803
-2.37793
-2.26326
-2.16987
-2.05694
-1.94873
-1.82501
-1.7378
-1.51638
-1.43616
-1.44864
-1.62033
-1.89672
-2.12928
-2.03964
-1.25242
0.538022
2.85798
5.38219
8.20917
10.9551
12.8684
13.9469
13.9798
12.9364
12.3611
11.8569
12.1756
11.8678
11.0324
10.3149
9.59791
8.84743
8.11063
7.44339
6.87489
6.41935
5.97371
5.61015
5.39354
5.36236
5.53441
5.90654
6.42268
7.09627
7.92565
8.87018
9.88345
10.9172
11.9242
12.8775
13.7742
14.6243
15.4366
16.2169
16.9748
17.7248
18.4852
19.2749
20.1124
21.019
22.0148
23.1218
24.365
25.7631
27.3276
29.064
30.9749
33.0657
35.3674
37.9449
40.5666
42.4211
45.1401
47.8062
50.4573
53.0636
55.6079
58.0421
60.3054
62.3909
64.3386
66.1593
67.8342
69.3951
70.8847
72.3141
73.7067
75.146
76.6737
78.3548
80.1188
81.9635
83.7358
85.4483
86.7942
87.8053
88.2512
87.0059
85.6094
82.304
78.5897
71.7587
65.1722
56.044
48.8004
40.2116
26.5413
18.0292
12.4933
8.22887
5.43991
3.24198
1.57243
-0.28855
-2.56608
-3.3254
-4.47437
-6.244
-7.61366
-8.72691
-9.62923
-10.3379
-10.9343
-11.4147
-11.782
-12.0355
-12.1582
-12.1674
-12.0753
-11.8902
-11.5908
-11.1825
-10.6523
-9.9732
-9.16883
-8.27508
-7.25051
-6.11123
-4.95859
-3.86937
-2.95923
-2.30189
-1.87384
-1.90742
-2.78118
-4.44072
-6.70329
-9.95817
-14.6306
-19.7906
-23.1752
-22.3173
-15.9491
-6.26449
1.27483
4.47658
11.0734
15.4687
17.5828
18.3165
18.1547
17.567
16.6767
15.82
14.8972
-8.43907
-19.824
-22.6807
-22.7143
-21.8447
-19.7576
-17.302
-14.7061
-12.0883
-9.62872
-7.40055
-5.46911
-3.92785
-2.58286
-1.29063
-0.194361
0.758916
1.61437
2.4495
3.25866
4.00776
4.60132
5.21557
5.5897
6.14235
6.44236
6.72834
7.0447
7.71103
8.86176
10.612
12.7374
15.431
18.0278
20.0179
21.2384
21.4932
20.8241
19.204
17.8286
16.8649
15.5594
14.6502
14.4412
13.7047
12.6101
11.6444
10.7366
9.8885
9.14591
8.51255
7.94376
7.45334
7.09098
6.89466
6.87753
7.03609
7.35118
7.81747
8.42862
9.16115
9.98147
10.8515
11.7309
12.5898
13.4168
14.2136
14.9876
15.7406
16.4797
17.2178
17.9703
18.7533
19.5828
20.4755
21.4521
22.532
23.7348
25.0786
26.5753
28.2307
30.0466
32.0232
34.1653
36.5265
39.0655
41.6699
43.4758
46.0465
48.5782
51.1188
53.6328
56.1059
58.4965
60.7916
63.0316
65.2595
67.4592
69.6879
71.9902
74.4136
76.9396
79.7078
82.6825
85.9533
89.2742
92.7349
95.842
99.1703
101.528
103.555
103.92
102.927
100.96
95.2439
89.28
77.5838
67.2089
52.8939
32.5012
21.4202
14.3666
9.71985
6.55647
4.75718
3.20677
1.86427
0.423213
-1.48402
-2.07887
-2.92119
-4.74063
-5.66665
-6.60126
-7.57433
-8.3697
-8.98199
-9.54281
-9.9982
-10.3778
-10.6728
-10.8305
-10.9343
-10.9715
-10.9486
-10.8419
-10.6575
-10.376
-9.97305
-9.48758
-8.99828
-8.4219
-7.67192
-6.87234
-6.05948
-5.27021
-4.64537
-4.17077
-3.93562
-4.3925
-5.68702
-7.5794
-10.284
-14.3982
-19.5781
-24.1486
-25.6362
-21.7262
-12.267
-2.30563
1.06579
5.60344
13.4433
16.1914
17.4673
17.7267
17.4445
16.7852
16.0953
15.2948
-8.12433
-19.1067
-22.3436
-23.119
-22.9994
-22.0854
-20.8049
-19.183
-17.3163
-15.2864
-13.197
-11.1059
-9.03666
-7.12181
-5.24266
-3.32551
-1.46212
0.404604
2.32097
4.31532
6.34301
8.54568
9.83088
12.4952
14.2859
15.8944
17.7196
18.8392
20.697
22.4205
24.2665
25.8565
27.0178
28.3125
29.4126
29.9904
29.7746
28.814
27.4583
26.0539
23.7532
21.529
19.5325
17.9034
16.6434
15.9674
14.9224
13.7909
12.5688
11.5608
10.6956
9.92912
9.24532
8.67921
8.29335
8.07208
8.0108
8.10155
8.33454
8.70362
9.19444
9.78475
10.4464
11.1462
11.8553
12.5564
13.2527
13.9371
14.6107
15.2746
15.9363
16.6076
17.3022
18.0328
18.8116
19.6572
20.5899
21.6258
22.7816
24.0706
25.5001
27.0747
28.7954
30.6627
32.685
34.8967
37.2881
39.8299
41.346
43.6644
46.2095
48.7113
51.2488
53.8165
56.4522
59.1832
62.0723
65.0974
68.3359
71.7871
75.5017
79.4031
83.9343
88.8148
93.992
99.166
104.191
109.922
115.362
118.412
121.273
120.823
118.146
112.297
102.372
91.9702
72.9165
43.1555
26.6867
16.9642
11.3312
7.97492
5.83112
4.40321
3.32213
2.51364
1.40376
0.120299
-1.2354
-1.79639
-2.7611
-4.07467
-4.78485
-5.53474
-6.50574
-7.19507
-7.75093
-8.31141
-8.73083
-9.15842
-9.47441
-9.59817
-9.77211
-9.89768
-9.9765
-10.0003
-10.0077
-9.88164
-9.62377
-9.38723
-9.27631
-9.29356
-9.09631
-8.78045
-8.41963
-7.85314
-7.27824
-6.79515
-6.33988
-6.4057
-7.29469
-8.7685
-10.91
-14.3364
-19.0819
-24.0908
-27.1782
-25.6171
-17.9768
-7.2399
-0.317254
2.48728
9.88525
14.6646
16.7307
17.4219
17.4353
16.9961
16.4615
15.778
-7.51224
-17.7177
-21.2599
-22.7334
-23.2918
-23.5181
-23.3761
-22.8986
-22.1589
-21.1507
-19.9097
-18.4796
-16.8933
-15.171
-13.4103
-11.4706
-9.41181
-7.18297
-4.76587
-2.15411
0.610051
3.52084
6.55009
10.873
14.2719
16.5977
20.2551
23.4281
26.4648
29.0468
31.1541
33.0851
34.7362
36.0925
37.0883
37.543
37.2381
36.0393
34.6857
32.6784
30.824
28.4719
26.0806
23.7096
21.8104
19.836
18.1931
16.6809
15.771
14.6872
13.6261
12.6546
11.7145
10.9341
10.1952
9.7205
9.40992
9.25253
9.22693
9.34065
9.57925
9.92438
10.3555
10.8474
11.3673
11.9571
12.5169
13.069
13.6114
14.1447
14.6718
15.2
15.7394
16.2973
16.8878
17.5237
18.2222
19.0011
19.8764
20.8637
21.9741
23.2178
24.6004
26.1292
27.8064
29.6478
31.6967
34.317
35.5963
37.4939
40.2612
42.8642
45.5468
48.4499
51.5758
55.0791
58.9321
63.0826
67.6289
72.5273
77.65
84.2817
91.29
98.4257
105.818
113.028
119.751
126.586
132.709
135.107
137.33
132.313
127.221
111.187
96.8245
58.7224
35.2336
20.7864
13.0921
8.94271
6.75131
5.2757
4.34725
3.58424
2.93076
2.19245
1.33493
0.363543
-0.575876
-1.49186
-2.39846
-3.55753
-4.02569
-4.3303
-5.70159
-6.17923
-6.66682
-7.2514
-7.62281
-8.178
-8.47868
-8.49418
-8.73773
-8.92952
-9.00736
-9.1349
-8.74666
-8.47933
-8.35298
-8.34314
-8.46286
-8.99181
-9.64348
-10.1959
-10.7871
-10.9942
-10.8193
-10.318
-9.53245
-9.08867
-9.39907
-10.4027
-12.0029
-14.658
-18.6839
-23.6006
-27.7065
-27.9452
-22.063
-11.6677
-2.17649
0.835204
5.38958
13.908
16.219
17.2372
17.526
17.2978
16.9085
16.3366
-6.69336
-15.8832
-19.578
-21.5253
-22.8408
-23.7613
-24.5559
-25.2845
-25.6389
-25.7478
-25.5944
-25.1884
-24.5505
-23.6895
-22.5412
-21.2059
-19.6182
-17.7004
-15.4277
-12.7814
-9.75226
-6.32142
-2.46145
1.83969
6.29053
11.265
15.9235
19.9937
25.2828
29.6577
33.4448
36.7877
39.5657
41.688
43.229
44.0846
44.1326
43.3315
42.0155
40.4152
38.9391
36.6887
33.7819
30.6749
28.8164
25.9974
23.7213
21.5237
19.6681
18.0993
16.6128
15.376
14.6964
13.9132
13.1004
12.4339
11.9283
11.5768
11.3375
11.2636
11.3171
11.4744
11.7185
12.0216
12.328
12.5052
12.8217
13.1601
13.5177
13.8753
14.2293
14.5796
14.9322
15.286
15.6578
16.0544
16.4928
16.9888
17.5579
18.2201
18.9908
19.8882
20.9227
22.1132
23.4694
25.016
26.7602
29.0562
31.0658
32.4031
34.8263
38.1663
41.0216
44.4632
48.9363
53.6102
58.7473
64.2937
70.4631
77.0571
84.2173
92.5863
101.593
110.571
119.424
128.154
135.607
142.628
146.681
146.846
144.033
131.05
120.911
90.1634
51.5446
28.5137
16.2116
10.038
7.14373
5.71875
4.97306
4.41914
3.84978
3.37853
2.82966
2.25372
1.49855
0.648853
-0.186357
-1.04997
-1.81586
-2.63674
-3.22102
-4.33922
-4.80356
-5.30734
-5.72956
-6.38852
-6.66906
-7.49713
-7.71497
-7.53342
-8.49363
-8.3541
-8.24591
-8.17866
-7.2573
-6.63344
-5.9092
-5.07299
-5.08551
-5.54119
-6.67595
-7.982
-9.63663
-11.7882
-13.755
-14.6238
-14.1883
-13.1672
-12.5725
-12.8298
-13.6361
-15.6125
-18.7202
-23.1855
-27.6787
-28.8736
-24.8149
-15.4231
-4.21192
-0.686418
3.48536
11.7139
15.5612
17.1226
17.7005
17.6775
17.425
16.9588
-5.71738
-13.869
-17.5222
-19.8218
-21.6863
-23.3919
-24.9341
-26.1986
-27.55
-28.6593
-29.5472
-30.2233
-30.6581
-30.7897
-30.5767
-30.0837
-29.2243
-27.9301
-26.1645
-23.8983
-21.1017
-17.7571
-13.8605
-9.42544
-4.51248
0.822749
6.20303
12.3556
18.0849
24.0033
29.3952
34.5712
39.1186
42.929
45.8982
47.9581
49.0603
49.2116
48.6008
47.507
46.0377
44.1588
42.2407
39.5304
37.1401
34.3428
31.5788
28.1554
26.3924
24.2481
21.5689
20.0688
18.7161
17.5601
16.3894
15.4693
14.7731
14.2748
14.1429
13.9886
13.8933
13.8794
13.9524
14.087
14.2405
14.3496
14.4902
14.6457
14.8119
14.9754
15.1305
15.279
15.4244
15.5413
15.6742
15.8094
15.9782
16.189
16.4565
16.8101
17.2676
17.8582
18.5953
19.508
20.6281
22.0057
23.5687
26.1091
27.3135
29.2795
32.4786
35.6725
39.2085
43.4095
48.7006
54.4434
60.8933
67.8779
75.7046
84.002
93.1405
102.818
113.02
122.809
132.263
141.386
147.763
153.075
151.049
148.552
132.089
113.916
68.8517
38.812
21.3593
12.0711
7.49737
5.45019
4.60167
4.22891
3.89101
3.94796
3.65069
3.35054
2.91005
2.40346
1.73523
0.958687
0.184312
-0.612465
-1.29854
-2.14768
-2.61676
-3.31246
-4.42021
-4.663
-5.14009
-5.74433
-5.7448
-7.14233
-7.78311
-8.09613
-8.88746
-8.20239
-8.1953
-7.44801
-5.24135
-3.96756
-2.28887
-0.155728
-0.282469
-0.822955
-2.12536
-2.78822
-3.54506
-6.48556
-10.7026
-15.1572
-17.9001
-18.1849
-17.2736
-16.504
-16.4954
-17.2905
-19.4183
-23.2609
-27.5016
-29.1678
-26.7196
-18.4734
-7.36989
-0.732329
2.09769
9.43414
15.0954
17.075
17.9437
18.1233
18.0004
17.633
-4.64242
-11.3325
-15.1708
-17.7671
-20.0214
-22.2255
-24.3539
-26.316
-28.0975
-29.8405
-31.5598
-33.1865
-34.6828
-35.7276
-36.3689
-36.6379
-36.4791
-35.8215
-34.6403
-32.911
-30.5895
-27.6621
-24.1309
-20.0508
-15.4139
-10.2138
-4.59723
1.44351
7.7164
14.4143
20.0433
26.6787
32.5561
37.8519
42.3702
45.9662
48.5878
50.2006
50.8953
50.8588
50.2116
49.0625
47.5472
45.5295
43.3619
40.9237
38.4626
35.9086
33.6389
31.2127
28.74
26.1919
24.9138
23.2442
21.2065
19.9602
19.0765
18.3484
17.5996
17.1501
16.8841
16.7218
16.6688
16.6564
16.833
16.9018
16.9379
16.9563
16.9608
16.9435
16.9079
16.8669
16.8015
16.7106
16.599
16.4696
16.385
16.3237
16.3028
16.37
16.5416
16.8587
17.3384
18.0103
18.9667
20.2916
21.6364
23.9665
25.6768
28.0187
31.365
35.1022
39.3754
44.4027
50.4476
57.1354
64.7603
72.9785
82.1614
91.7833
102.213
112.513
123.029
132.602
142.143
148.813
152.944
152.296
141.846
132.067
99.3007
56.6932
30.3981
15.712
8.658
5.28317
4.14086
3.59776
3.60832
3.70187
3.64934
3.55189
3.60411
3.31041
3.18476
2.63614
1.95513
1.21511
0.475962
-0.232077
-0.924401
-1.68483
-2.16636
-2.73811
-3.98235
-4.25137
-4.60136
-5.20684
-6.77883
-8.2333
-8.42293
-8.75783
-10.3682
-8.64265
-8.77094
-6.2184
-1.65949
0.86476
6.30705
11.0425
11.7307
12.3049
10.383
5.42596
3.41745
0.46203
-3.87903
-8.76608
-15.5131
-20.2972
-21.8042
-21.1769
-20.5468
-19.9763
-20.7818
-23.755
-27.4164
-29.6205
-28.0743
-20.941
-9.93746
-1.37101
1.49003
6.45285
15.3849
17.1964
18.2624
18.6274
18.6247
18.3477
-3.78591
-8.4579
-12.5951
-15.5184
-17.8543
-20.3005
-23.2082
-25.6592
-27.7864
-29.9143
-32.069
-34.0805
-35.7088
-37.3752
-38.5837
-39.3767
-39.757
-39.6563
-39.0704
-37.9592
-36.2866
-34.0469
-31.2443
-27.9399
-24.0847
-19.6924
-14.8256
-9.50257
-3.76665
2.44721
9.19493
14.4086
21.3974
27.4877
33.0528
37.8484
41.8857
44.9736
47.1052
48.3949
48.9519
48.8795
48.2912
47.2156
45.8072
44.0778
42.2094
40.113
38.0118
35.8265
33.6657
31.4164
29.608
27.8866
26.3686
24.6559
23.8856
22.9036
21.7304
21.0771
20.6393
20.2798
20.0468
19.8252
19.6626
19.5978
19.5651
19.5207
19.4525
19.369
19.1824
18.9515
18.6819
18.4272
18.1515
17.8195
17.4694
17.1549
16.8664
16.6809
16.6037
16.6806
16.9458
17.4014
18.2957
19.676
20.6305
22.5212
25.1734
27.9982
31.5502
35.7958
40.7548
46.5265
53.3347
60.813
69.3489
78.4571
88.507
98.8011
109.433
119.779
130.02
138.14
146.133
147.06
147.862
134.033
119.251
73.7831
41.4421
21.5105
11.1639
5.68609
3.68699
2.55915
2.22407
2.87564
3.18426
3.35881
3.45208
3.53352
3.52141
3.61929
3.34675
2.77955
2.10512
1.39383
0.694426
0.0710789
-0.634025
-1.33991
-1.75029
-2.58162
-3.79795
-3.5912
-4.62273
-5.54153
-7.51822
-9.23971
-10.6785
-12.1393
-13.645
-10.8867
-10.8001
-3.44949
5.55776
9.65293
26.1775
30.084
34.6919
39.4927
38.5355
31.342
24.8616
14.2619
3.34823
1.15278
-5.8694
-15.4091
-22.4289
-24.9135
-24.9183
-24.0136
-23.327
-24.9383
-27.8655
-29.9957
-29.0509
-22.8815
-12.1727
-2.04546
1.02017
5.30316
14.3969
17.3104
18.641
19.181
19.2881
19.0915
-2.70592
-5.52253
-8.32063
-11.9781
-15.7763
-18.1735
-20.4433
-22.6845
-24.6367
-26.5503
-28.4862
-30.3552
-32.172
-33.6162
-35.0754
-36.3092
-37.2316
-37.8511
-38.1489
-37.9176
-37.1915
-35.9964
-34.3395
-32.3135
-29.9009
-27.0741
-23.8019
-20.042
-15.703
-10.6802
-4.91718
1.80909
6.66265
13.4878
19.4843
24.8624
30.002
34.2761
37.6344
40.2106
42.0394
43.1585
43.6992
43.7161
43.3142
42.5369
41.4838
40.1683
38.6988
37.0893
35.4313
33.6892
32.0657
30.5233
29.1424
27.7365
26.6959
25.7785
24.8908
24.0074
23.657
23.1466
22.8564
22.6522
22.4604
22.2967
22.1724
22.0207
21.8465
21.6143
21.3755
21.0557
20.6768
20.2346
19.7599
19.2729
18.7493
18.2532
17.7343
17.3478
17.0831
16.9524
17.0541
17.3128
18.3249
19.0864
20.6331
22.5491
25.1698
28.4334
32.3495
37.0859
42.6087
48.9778
56.4436
64.5162
73.6733
83.1569
93.3032
103.913
113.904
123.837
131.664
137.674
140.007
134.122
125.753
98.6827
57.2637
31.0518
15.4118
7.55395
3.56668
1.89565
1.5523
1.56626
2.0343
2.38596
2.89836
3.24263
3.34246
3.57602
3.68937
3.7815
3.43428
2.82265
2.18137
1.51274
0.860595
0.313105
-0.406017
-1.10711
-1.47581
-2.69434
-4.17017
-8.74684
-5.58037
-4.27976
-10.1437
-13.5478
-16.4223
-20.4462
-21.6136
-16.7455
-13.4576
2.43605
14.2677
24.9599
51.1041
57.009
66.2248
76.0381
81.6248
78.4384
68.2923
48.5406
29.855
12.6286
1.47531
-6.21409
-14.3716
-24.3185
-28.0178
-27.9584
-26.8412
-26.9116
-28.6287
-30.3612
-29.7967
-24.4209
-14.1693
-2.72473
0.715597
4.93616
13.5243
17.3874
19.0578
19.7725
19.9794
19.8525
-0.847256
-1.35371
-4.79434
-7.15877
-9.2419
-10.8958
-11.9147
-13.1221
-14.2486
-15.7004
-17.3324
-19.1917
-21.1592
-23.2523
-25.5103
-27.5618
-29.3864
-30.9713
-32.3235
-33.1637
-33.6816
-33.9471
-34.1082
-33.8564
-33.2566
-32.2613
-30.8581
-28.96
-26.4359
-23.1843
-19.1357
-14.2017
-8.32878
-3.95014
2.8643
7.99789
14.2234
19.2525
23.4717
27.2758
30.3411
32.6153
34.358
35.5441
36.2734
36.5854
36.4959
36.1163
35.4981
34.6662
33.6984
32.6081
31.4922
30.3798
29.3502
28.3406
27.4831
26.749
26.1085
25.4833
25.0871
24.7195
24.4768
24.2261
24.1285
23.9764
23.8805
23.713
23.5433
23.2966
22.9944
22.6245
22.188
21.6786
21.0752
20.4714
19.8149
19.2029
18.4763
17.9904
17.6123
17.2791
17.2639
17.4791
18.1827
19.2251
20.7805
22.8487
25.6044
29.1274
33.3219
38.4758
44.4232
51.1733
59.1054
67.4045
76.7078
86.1629
95.8968
106.413
114.287
123.044
125.708
128.939
119.645
108.081
68.8902
41.071
21.4104
10.492
4.19808
1.74667
0.472769
0.53801
0.727495
1.0025
1.73596
2.37619
2.86927
3.08144
3.30302
3.60787
3.86873
3.8703
3.39257
2.76729
2.22752
1.62556
1.01147
0.506172
-0.180351
-1.14745
-1.54585
-2.82779
1.03174
-8.95687
-11.4867
0.0401243
-16.3192
-24.8067
-32.0132
-36.9664
-34.5423
-25.4788
-13.6849
9.18038
21.7901
42.9395
70.0796
78.5909
85.5288
108.596
114.493
119.617
123.416
110.704
81.8172
46.5194
23.1492
1.52453
-4.53704
-14.4295
-26.9914
-30.6499
-30.232
-29.7059
-30.3171
-31.017
-30.5268
-25.7104
-15.7874
-4.20062
1.32389
4.63641
12.8346
17.4849
19.5009
20.3902
20.6883
20.6201
0.24164
1.00759
2.90266
4.57752
3.79251
2.6789
1.61627
0.469123
-1.01409
-2.86529
-5.24456
-7.59106
-10.4843
-13.3713
-16.0427
-18.6111
-21.176
-23.5342
-25.6463
-27.6046
-29.4483
-31.1618
-32.8248
-34.3066
-35.6843
-36.7601
-37.5391
-37.8043
-37.3262
-35.9917
-33.772
-30.4794
-26.3761
-20.5629
-15.9723
-12.9586
-4.31883
0.583483
5.15972
10.563
14.7694
18.0235
21.0724
23.4888
25.4676
26.9718
27.9303
28.615
28.9839
29.0582
28.9225
28.591
28.1361
27.6104
27.0918
26.5704
26.1021
25.702
25.3693
25.0584
24.8497
24.6756
24.58
24.4874
24.463
24.4209
24.4061
24.2519
24.1646
23.9524
23.671
23.3244
22.8877
22.3751
21.7572
21.0888
20.3568
19.6924
18.7474
18.365
17.9007
17.3749
17.3437
17.539
18.2093
19.2711
20.9079
23.0903
26.0008
29.7273
34.0859
39.5964
45.6689
52.55
60.6126
68.8624
78.0557
86.8477
95.4574
104.993
109.429
114.965
110.934
106.873
85.436
52.3307
29.2576
14.5759
6.11947
2.31413
0.0348821
-0.447805
-0.596107
-0.568989
0.0819939
1.02361
1.7784
2.41805
2.68435
3.07028
3.3781
3.63024
3.98136
3.79005
3.181
2.74229
2.31425
1.79134
1.17757
0.608762
0.101617
-1.87856
-2.43521
-11.8982
0.0962938
-4.2479
-27.099
3.90515
-32.3899
-50.6983
-59.2095
-58.8373
-47.9453
-31.2186
-10.1387
13.1619
26.5371
58.7409
69.0614
82.5582
100.841
117.996
131.048
144.314
152.939
154.1
149.291
114.998
66.989
29.8397
3.31209
-10.2551
-17.3737
-29.393
-32.4392
-32.3048
-32.4353
-32.5306
-31.4903
-26.785
-17.1323
-5.11239
1.58011
4.41345
11.8299
17.8009
19.9857
21.0299
21.4091
21.3883
-3.94213
15.7364
-8.54911
-1.59925
0.18078
-0.611257
-1.71639
-3.25165
-4.74572
-6.59245
-8.39996
-10.2395
-11.7914
-13.4965
-14.9515
-16.3779
-17.9372
-19.7204
-21.7051
-24.0081
-26.6436
-29.5172
-32.5977
-35.7564
-39.0268
-42.0309
-44.9426
-47.3638
-48.8127
-49.4725
-49.2381
-47.8918
-45.6976
-41.886
-37.7345
-34.4291
-26.4446
-22.5471
-17.5208
-7.95205
-4.35571
-0.636184
4.08363
7.76246
11.1986
13.9592
16.0139
18.0593
19.5234
20.607
21.4704
22.0136
22.3359
22.5237
22.6602
22.7315
22.7852
22.8466
22.9106
22.9616
23.056
23.1388
23.2575
23.379
23.5235
23.6406
23.7191
23.7255
23.7205
23.6165
23.4694
23.1766
22.7604
22.247
21.6438
20.9767
20.2365
19.5316
18.7167
18.0967
17.6071
17.2071
17.1158
17.3139
17.9843
19.068
20.7972
23.0501
26.1123
29.9334
34.324
40.0777
45.9753
52.8563
60.8017
68.5076
77.0295
84.1471
91.1212
97.4345
97.1592
95.9126
84.7151
55.3087
33.6326
17.8772
8.42446
2.86181
0.331209
-1.21464
-1.28826
-1.59592
-1.44189
-0.589214
0.359034
1.15391
1.94287
2.23746
2.67724
3.18835
3.30173
3.71565
4.01015
3.47528
3.07119
2.81135
2.40887
1.82436
1.33962
0.540323
-0.0182561
-2.1869
1.65191
-15.2354
-9.31037
26.6682
-65.2596
-29.5706
-48.959
-88.9554
-90.3291
-76.2849
-53.6734
-29.4268
-4.49531
14.3735
31.5216
58.3717
66.3851
79.9657
98.6934
116.226
133.015
150.786
166.735
179.684
184.127
180.727
145.929
83.6334
33.8014
6.95928
-8.44053
-20.2242
-31.6079
-34.3414
-34.6088
-34.3749
-32.2443
-27.7584
-18.4872
-6.25364
1.77103
4.58825
10.202
18.7673
20.6092
21.7722
22.2262
22.2432
-0.851018
-0.630618
-0.841603
-0.283705
-0.658573
-1.15524
-1.1635
-2.13955
-2.88749
-2.13936
-5.30731
-7.89584
-4.06937
-9.89566
-12.3548
-13.9509
-16.4293
-19.4067
-22.5583
-25.879
-29.4716
-33.2896
-37.3778
-41.5517
-46.0447
-50.2958
-54.8386
-58.9961
-61.1339
-63.647
-65.6011
-66.5989
-66.9154
-66.1725
-63.2113
-60.3639
-55.1627
-49.9297
-44.7056
-34.7339
-30.0067
-24.9892
-16.5645
-11.7142
-6.17932
-2.18881
1.20773
4.00156
6.53799
8.71253
10.8845
12.482
13.7512
14.8365
15.841
16.6637
17.4082
18.0829
18.6672
19.1341
19.6645
20.0791
20.4782
20.8913
21.2921
21.6065
21.9364
22.1418
22.2564
22.2618
22.1421
21.9191
21.5796
21.1341
20.5865
19.9658
19.2668
18.5702
17.8371
17.1954
16.6891
16.3512
16.2896
16.5306
17.2486
18.3625
20.1727
22.4417
25.6001
29.3688
33.7243
39.6168
44.9365
51.6003
58.7878
65.1238
71.9298
76.3357
79.6125
78.6926
72.5774
48.824
32.2013
18.5041
9.54728
3.14749
0.280299
-1.72897
-2.07894
-2.4733
-2.79037
-2.2792
-1.24677
-0.269946
0.550301
1.44325
1.75906
2.23699
2.88085
3.04402
3.26846
3.83359
3.78818
3.31436
3.14451
2.8626
2.43318
1.70769
1.34378
0.0696621
-0.664022
-9.80175
6.75287
-16.8391
-43.8081
57.5833
-101.367
-98.2792
-111.988
-119.485
-102.315
-74.0753
-45.4878
-19.6954
1.4533
14.8509
36.4832
51.0562
57.7618
73.5973
89.4902
106.112
124.286
144.095
164.854
184.897
200.517
211.907
207.066
171.619
100.38
37.3675
10.41
-9.52021
-22.9136
-33.5788
-36.0879
-35.799
-33.7408
-29.032
-19.7909
-7.22248
1.9618
4.84294
9.61112
19.1393
21.3901
22.6636
23.169
23.1988
0.638229
0.242598
-0.037254
-1.43244
6.95835
-16.8982
18.4166
-17.0638
8.91233
-1.76018
-1.84765
-0.469836
-0.838114
-1.53335
-1.76534
-2.59945
-3.51634
-4.63667
-6.13003
-8.01576
-10.2728
-13.1109
-16.389
-20.4478
-24.8828
-30.5504
-36.4581
-43.1587
-53.1706
-62.2743
-69.9222
-79.6513
-87.2898
-91.7512
-93.0086
-92.0653
-88.8733
-83.0881
-77.2847
-69.2613
-61.8488
-55.3289
-47.1922
-40.5935
-30.9861
-27.2344
-22.3586
-14.4714
-10.1372
-6.71633
-2.5479
0.212627
2.6371
4.80209
6.90557
8.58773
10.1945
11.5814
12.7519
13.7534
14.5919
15.4976
16.298
17.1233
17.8176
18.3968
18.9009
19.2939
19.5718
19.7268
19.7447
19.6295
19.3812
19.0178
18.543
17.993
17.3591
16.7162
16.0434
15.4658
14.9894
14.7154
14.7052
15.0099
15.777
16.9237
18.7832
21.0182
24.163
27.7668
31.9334
37.647
41.5096
48.0251
52.998
56.8959
60.8297
61.8196
55.0251
38.0614
26.3179
15.7335
8.44831
2.81385
0.0182118
-2.16392
-2.63273
-3.15093
-3.13971
-3.29639
-2.56147
-1.68149
-0.937364
-0.0518662
0.940505
1.26237
1.7642
2.45242
2.77986
2.90949
3.33966
3.86052
3.35313
3.24819
3.11181
2.83004
2.40476
1.39395
1.19847
2.4549
0.211735
-21.9792
8.79897
14.5152
-120.614
21.3717
-130.577
-169.198
-156.41
-124.461
-88.0789
-55.4196
-30.0205
-8.72929
5.59755
16.4495
35.401
41.4366
50.45
64.6547
79.1365
94.753
112.744
132.792
154.842
178.829
201.279
220.029
236.527
228.771
178.843
104.924
37.666
8.32094
-11.4932
-25.8466
-35.8123
-36.7018
-34.9529
-29.7047
-20.7175
-8.00465
2.24455
5.28112
9.56303
19.4659
22.2674
23.6303
24.1544
24.1638
0.251879
0.0946755
-0.191801
0.188921
0.0495762
-0.0807572
0.196579
-0.215983
0.231174
-0.00904076
0.0390548
-0.649622
2.11345
-6.68125
5.12622
-0.342266
-0.744374
-0.359768
-0.617716
-0.683704
-0.932479
-1.50678
-2.01391
-2.98559
-3.77675
-5.51674
-6.88433
-9.69154
-12.7397
-16.8932
-21.489
-29.7696
-36.74
-47.3386
-58.0369
-69.0184
-80.0191
-87.461
-93.8022
-96.0969
-94.1998
-90.1992
-82.421
-75.2405
-65.5062
-57.0569
-49.8626
-41.7726
-34.4056
-29.3274
-21.5647
-18.476
-13.6153
-9.89912
-6.0404
-3.16843
-0.00168244
2.37729
4.23001
6.50892
8.14264
9.6152
11.0305
12.1228
13.1421
14.046
14.8147
15.4329
15.8986
16.2188
16.3806
16.383
16.2281
15.9452
15.5406
15.0656
14.4987
13.932
13.3152
12.8228
12.3711
12.1801
12.2073
12.5817
13.3489
14.524
16.3304
18.4353
21.3728
24.6302
28.4654
32.8629
34.4561
41.3225
40.8055
42.2047
32.6665
25.21
17.6621
10.5647
5.58276
1.58218
-0.479287
-2.35039
-2.87622
-3.58125
-3.7202
-4.19897
-3.87266
-3.00011
-2.04001
-1.37647
-0.452288
0.509727
0.827105
1.28825
1.97882
2.40259
2.63702
2.85857
3.49423
3.60584
3.16797
3.169
3.00993
2.66269
2.304
0.88369
-3.73593
-2.29723
9.31333
-48.0633
-21.7211
92.1548
-203.828
-143.777
-171.021
-178.248
-143.049
-98.4931
-61.294
-33.7804
-15.2209
-0.805067
8.17327
16.7395
31.2748
36.3633
42.7004
58.4734
70.4003
85
102.278
121.809
143.537
168.614
194.301
217.533
242.516
258.735
239.314
172.065
94.1954
40.647
4.76336
-14.6761
-31.4503
-36.3506
-35.2878
-30.8039
-21.5715
-8.4409
2.62839
5.78403
10.0337
19.8825
23.187
24.6551
25.1625
25.1118
0.0776247
0.0633762
0.0126685
0.0175819
0.0291582
0.0701589
0.0279728
0.038434
0.0622197
0.0605011
0.0193955
0.268336
-0.138784
-0.00736563
0.319037
0.0383676
0.0449981
-0.271472
0.604075
-1.27551
0.848369
0.131442
-0.0710443
-0.304437
-0.320119
-0.495717
-0.684181
-1.08087
-1.45324
-2.01706
-2.91499
-3.94078
-5.75821
-8.34018
-11.8184
-16.1379
-22.4151
-28.8037
-37.482
-46.5138
-55.5815
-63.516
-70.3268
-74.516
-76.8276
-75.5202
-72.4486
-67.3334
-60.6729
-54.3088
-46.0951
-39.6088
-33.4299
-28.0455
-22.1453
-18.3236
-12.0696
-9.91772
-7.77463
-2.39288
-0.373595
1.8883
3.93653
5.54102
7.04656
8.47389
9.63754
10.5644
11.2288
11.7413
12.0682
12.1907
12.1208
11.9029
11.5529
11.1412
10.6279
10.1445
9.56303
9.18045
8.72844
8.67553
8.67914
9.11115
9.77254
10.9762
12.5287
14.2571
17.0052
19.6499
22.4263
22.6367
24.5171
20.9386
16.8342
13.5495
9.269
5.53339
2.71281
0.0526365
-1.44767
-2.95655
-3.38906
-4.1798
-4.10474
-4.68246
-4.74871
-3.90414
-3.11523
-2.55018
-1.80376
-0.867952
0.112617
0.412847
0.837643
1.48829
1.95151
2.31646
2.51905
2.95847
3.57255
3.16394
3.10509
3.0673
2.82194
2.07452
1.95657
3.28571
-1.6701
-19.0797
32.1754
-71.5634
-101.17
120.226
-278.365
-248.279
-204.457
-155.183
-104.122
-62.645
-33.9971
-15.9787
-5.03021
3.04384
9.14477
15.0529
27.1968
33.0057
39.9224
51.9027
64.472
78.2443
94.4116
112.904
133.861
158.272
184.944
210.563
237.659
266.725
274.527
231.827
152.248
80.6794
31.471
0.874047
-17.853
-33.5122
-34.2405
-30.8929
-21.7997
-8.47521
3.22971
6.48653
10.7867
20.484
24.1873
25.7241
26.2024
26.0168
0.0484533
0.0466903
0.0291407
0.0212742
0.0306918
0.0435947
0.0357233
0.0402913
0.0482652
0.0484266
0.0541277
0.0805337
0.0367419
0.0822701
0.0981448
0.0776308
0.0604658
0.185342
-0.0209676
0.0692348
0.170697
0.120223
-0.0703481
0.31164
-0.394263
0.351967
0.0584811
-0.0778346
-0.136479
-0.229926
-0.353987
-0.524935
-0.716625
-1.09692
-1.67409
-2.34295
-3.49729
-4.74854
-6.71558
-9.09245
-12.3059
-15.9609
-20.6096
-25.409
-30.7803
-36.0441
-40.6585
-44.576
-46.816
-48.3262
-47.6839
-46.1096
-43.4064
-39.9977
-35.2801
-31.3073
-26.5634
-21.9441
-18.3767
-13.6837
-11.0786
-6.30725
-4.49014
-2.41452
-0.499401
1.82312
3.43735
4.83696
5.55491
6.2168
6.76231
7.02165
7.02534
6.85053
6.55756
6.19866
5.76618
5.36716
4.87389
4.61899
4.19513
4.38242
4.17217
4.67246
5.2025
6.47307
7.22491
8.86841
9.01078
9.02499
8.57856
7.52309
6.61085
4.9253
2.97269
1.38546
-0.162709
-1.40293
-2.20492
-3.2924
-3.61643
-4.39296
-4.47941
-4.75954
-5.00544
-4.43443
-3.85247
-3.41316
-2.81854
-2.01534
-1.1729
-0.274741
-0.00148063
0.563591
0.928369
1.46644
1.92334
2.24092
2.50863
3.16552
3.3709
2.88052
2.90845
2.99182
2.56728
0.0915755
-2.76037
2.00004
10.9634
-61.6378
55.4626
-40.0051
-237.801
-126.325
-235.034
-228.249
-168.532
-109.703
-60.2717
-29.6695
-13.5082
-5.36241
-0.913114
3.00633
7.84953
13.1753
21.8521
34.1933
39.0104
46.9051
62.3859
74.7379
89.8122
106.937
126.379
149.414
175.426
201.773
229.222
261.843
288.05
273.017
205.735
128.205
67.0564
16.1321
-1.60595
-27.333
-31.442
-29.235
-21.0995
-7.95068
4.09738
7.41015
11.7485
21.356
25.2325
26.7424
27.1081
26.7744
0.0349808
0.035986
0.029765
0.0263851
0.0297801
0.034166
0.0352048
0.0381604
0.0416146
0.044139
0.0486113
0.0532058
0.0533455
0.0644779
0.0698741
0.0708473
0.0757345
0.0962028
0.0714982
0.0966598
0.109483
0.0964715
0.141173
0.0620884
0.0829461
0.139558
0.0696138
0.0428054
0.0721749
0.0302237
-0.00781596
-0.0479283
-0.0931688
-0.15167
-0.262199
-0.379855
-0.593025
-0.821407
-1.15501
-1.56609
-2.13955
-2.87511
-3.79251
-4.93838
-6.25923
-7.95407
-9.72939
-11.8133
-13.8457
-16.0569
-17.9254
-19.6555
-21.0017
-21.8204
-21.9818
-21.8676
-21.1432
-19.6685
-18.3078
-15.9881
-14.117
-11.5864
-9.20913
-7.29906
-5.71609
-3.76087
-2.56616
-1.67673
0.375805
0.0850269
0.796915
1.31161
1.42754
1.31007
1.17954
0.946088
0.780316
0.517308
0.422466
0.216899
0.324113
0.285059
0.685569
1.14031
1.4143
1.75727
1.8214
1.93579
1.77524
1.37025
0.866871
0.181178
-0.358633
-1.23794
-1.96061
-2.40835
-3.19256
-3.35944
-3.88047
-4.21742
-4.56446
-4.85748
-5.08923
-4.62488
-4.27006
-4.01317
-3.50807
-2.76923
-2.1271
-1.43073
-0.586846
-0.344743
-0.0733474
0.730693
1.04011
1.48977
1.90888
2.23952
2.64755
3.26669
2.95518
2.74366
2.52183
3.08881
2.16569
2.68166
-10.0362
3.03024
38.0529
-136.209
28.8039
-31.4794
-315.534
-284.241
-239.507
-173.657
-109.047
-49.625
-20.3409
-8.11027
-3.20373
-3.09412
-2.63599
-0.166472
4.898
11.1597
19.3507
34.237
39.6646
47.5724
61.0435
73.9597
88.3096
103.993
121.719
142.629
166.93
192.446
219.32
251.739
286.332
293.701
246.262
174.405
105.228
45.7108
9.41414
-8.75442
-29.3188
-28.3515
-20.4046
-6.78087
5.25018
8.5898
12.7337
22.1242
26.1173
27.6408
27.971
27.578
0.0288317
0.0297556
0.028354
0.0278702
0.0295767
0.0319173
0.0338823
0.03615
0.0386356
0.0412584
0.0444836
0.0478447
0.0515742
0.056839
0.0613569
0.0655102
0.0707832
0.0764902
0.0779784
0.0851473
0.0890426
0.0891119
0.0976314
0.0833679
0.0878953
0.0921054
0.0749067
0.0761298
0.0721261
0.0929507
0.0370452
0.0443693
0.0272419
0.00772668
-0.0231354
-0.0554307
-0.112032
-0.173668
-0.261608
-0.349543
-0.484396
-0.628436
-0.811348
-1.05871
-1.32258
-1.65994
-2.01565
-2.45022
-2.90342
-3.41995
-3.94197
-4.48013
-5.00157
-5.49415
-5.9077
-6.25761
-6.42955
-6.55529
-6.34621
-6.20163
-6.08602
-5.46913
-5.07158
-4.51084
-3.88153
-3.14432
-2.4361
-1.97456
-1.35685
-0.407343
-1.22482
-0.884145
-0.444085
-0.317731
-0.324707
-0.386866
-0.39927
-0.460356
-0.47691
-0.545887
-0.553473
-0.589702
-0.609982
-0.57082
-0.636386
-0.689026
-0.859293
-0.976729
-1.26496
-1.53079
-1.84203
-2.18106
-2.48736
-2.90218
-3.09815
-3.52569
-3.90103
-4.16318
-4.38542
-4.74247
-4.94324
-4.68006
-4.45609
-4.22148
-3.87982
-3.33149
-2.68214
-2.14418
-1.70792
-0.867753
-0.650096
-0.215637
0.0569656
0.69666
1.10325
1.55072
1.93153
2.39257
2.84795
3.00714
2.78433
2.7052
1.94418
1.97535
-1.61245
2.74758
-17.9472
-20.9666
91.9939
-215.891
-127.984
-137.381
-311.627
-269.437
-191.761
-89.9738
-41.5912
-8.84661
-0.891052
-0.094638
-1.97912
-7.78946
-8.67566
-5.39314
1.10784
9.06008
18.372
34.3773
43.2572
49.432
62.7555
75.7443
89.4874
103.974
120.133
138.974
160.949
184.709
209.79
240.181
276.955
297.272
270.58
211.68
141.285
75.223
27.021
3.94737
-14.3403
-26.8471
-18.3439
-4.83943
6.86475
9.91309
14.0016
23.4831
27.3402
28.7536
28.8818
28.2237
0.0263577
0.0272708
0.0275534
0.0281324
0.0294065
0.0310519
0.0328033
0.0347279
0.0368728
0.0392916
0.042085
0.0451956
0.0487089
0.052619
0.0565694
0.0605438
0.0646453
0.0683711
0.0714546
0.0745658
0.0763133
0.0767008
0.0767062
0.0732282
0.0717687
0.0693336
0.0684561
0.0659716
0.0735246
0.0611129
0.0326052
0.0571622
0.0339832
0.0207473
0.00936615
-0.00264166
-0.0200988
-0.0378102
-0.0647067
-0.0987399
-0.141264
-0.180727
-0.273718
-0.335077
-0.391705
-0.470426
-0.55434
-0.650909
-0.745589
-0.856968
-0.965698
-1.08271
-1.19388
-1.30212
-1.39149
-1.47482
-1.49425
-1.55521
-1.57203
-1.55784
-1.55528
-1.48784
-1.46086
-1.35503
-1.26126
-1.12919
-0.989533
-0.946568
-0.725882
-0.651154
-0.635478
-0.384638
-0.6924
-0.651307
-0.575067
-0.593741
-0.623862
-0.682976
-0.742643
-0.820044
-0.895297
-0.988874
-1.08953
-1.21022
-1.36357
-1.51813
-1.71867
-1.85699
-2.18511
-2.3516
-2.3931
-2.84336
-3.0629
-3.3982
-3.64762
-3.88004
-4.18572
-4.49206
-4.53056
-4.39444
-4.11815
-4.18787
-4.01583
-3.5883
-3.11657
-2.58805
-2.11618
-1.80007
-1.31782
-0.789098
-0.739173
0.040408
0.150486
0.746883
1.19597
1.62764
2.03934
2.67892
2.881
2.4802
2.51672
2.77457
2.28115
-3.28987
-10.8148
13.7089
-23.9479
-82.7621
124.887
-263.714
-268.71
-296.501
-263.249
-190.576
-87.1204
-32.2766
4.68246
8.4411
2.34402
-1.74288
-8.43108
-17.9103
-17.1097
-11.6719
-3.13351
6.79794
18.0248
35.1904
45.6327
51.6846
66.0719
79.3127
92.6731
106.679
121.905
139.263
159.268
181.123
203.907
230.547
265.342
290.903
281.011
235.553
170.51
102.25
46.7728
11.496
0.581025
-18.3121
-15.5279
-2.05081
8.4831
11.165
16.2082
25.1308
28.4641
29.7057
29.6185
28.6207
0.0251895
0.0260871
0.0268346
0.0276896
0.0287886
0.0301013
0.0315839
0.0332551
0.035154
0.0373204
0.0397801
0.0425164
0.0455096
0.048687
0.0519239
0.0551116
0.0581226
0.0607037
0.0626897
0.0639106
0.0639807
0.0627569
0.0603034
0.0567589
0.0541426
0.0546976
0.0542811
0.0477312
0.0402414
0.0360426
0.0257616
0.022386
0.013195
0.0050434
-0.00226699
-0.0102413
-0.0185081
-0.028105
-0.0375866
-0.0510228
-0.060531
-0.082578
-0.089214
-0.116801
-0.144498
-0.174374
-0.205599
-0.238445
-0.289624
-0.324748
-0.370052
-0.393469
-0.420577
-0.447934
-0.467356
-0.48648
-0.498292
-0.511698
-0.521913
-0.523738
-0.527286
-0.521507
-0.521087
-0.506581
-0.498197
-0.479622
-0.470567
-0.456838
-0.43646
-0.459733
-0.441784
-0.443268
-0.501669
-0.524505
-0.565371
-0.620097
-0.683669
-0.768479
-0.851082
-0.941385
-1.0396
-1.15463
-1.27807
-1.43939
-1.59915
-1.70848
-1.89361
-2.06459
-2.31053
-2.56087
-2.78316
-2.99308
-3.29701
-3.57548
-3.79007
-3.95674
-4.00158
-3.9322
-3.9883
-3.98338
-3.84729
-3.53469
-3.17329
-2.81455
-2.49184
-2.15266
-1.89663
-1.55295
-1.00475
-0.717176
-0.903776
0.188838
0.476662
0.861178
1.3402
1.74956
2.27279
2.77781
2.67892
1.96594
1.57237
-1.01565
1.28156
5.85358
-30.8448
14.8551
-4.32563
-186.584
57.5322
-336.935
-349.096
-296.595
-184.591
-78.547
-12.4418
2.37452
20.5604
14.9475
-0.461704
-11.0135
-24.7248
-28.9662
-25.9753
-18.3239
-7.79676
3.97152
17.1845
35.8664
45.3482
53.8655
69.5716
83.3727
96.8545
110.582
125.173
141.356
159.629
179.476
200.16
224.556
256.262
282.816
282.356
249.016
191.219
124.417
65.8177
25.8444
6.70589
-3.11136
-13.3564
2.03741
10.4845
13.2969
19.7869
26.0281
29.4567
30.4591
30.0831
28.6552
0.0241227
0.0249426
0.0257286
0.0265625
0.0275057
0.0285869
0.0298239
0.0312401
0.0328604
0.034701
0.0367597
0.0390096
0.0414023
0.0438597
0.0462759
0.0485209
0.0504349
0.0518183
0.0524699
0.0521661
0.0506718
0.0478321
0.0439038
0.0394147
0.0392009
0.0385623
0.0335809
0.0257613
0.0212248
0.0131925
0.00603599
-0.000814376
-0.00824886
-0.0152907
-0.0218468
-0.0285557
-0.0349831
-0.041899
-0.0481222
-0.0561345
-0.0618863
-0.0707428
-0.0772858
-0.0849124
-0.0941612
-0.10496
-0.116896
-0.129895
-0.145368
-0.161494
-0.18201
-0.198254
-0.213004
-0.227052
-0.240035
-0.258784
-0.27108
-0.280169
-0.289793
-0.293185
-0.299042
-0.303956
-0.311093
-0.316726
-0.325633
-0.333946
-0.346326
-0.358605
-0.37593
-0.399045
-0.419816
-0.455226
-0.495194
-0.537989
-0.595245
-0.656214
-0.73727
-0.79346
-0.867993
-0.959341
-1.06314
-1.1833
-1.31924
-1.48005
-1.64929
-1.79627
-1.98836
-2.1676
-2.40269
-2.65891
-2.83355
-3.05433
-3.17762
-3.29899
-3.29451
-3.54223
-3.6113
-3.63604
-3.48993
-3.28724
-3.06883
-2.84036
-2.63694
-2.42154
-2.18188
-1.94646
-1.7111
-1.19907
-1.09618
-0.405838
-0.54538
0.119785
0.641721
1.01984
1.55156
2.03732
2.45964
2.22765
2.81625
1.36029
0.736128
-5.47451
-1.19967
25.2742
-64.9306
-20.5021
19.3708
-252.233
-262.857
-316.219
-294.939
-165.664
-70.4635
-3.86576
16.6191
42.5755
29.1717
5.66279
-12.1345
-35.2937
-42.3706
-41.9487
-35.6356
-25.6586
-13.517
-0.235693
14.6563
34.3573
42.4014
53.7241
71.9078
86.4201
100.213
114.012
128.319
143.701
160.555
178.547
197.398
219.716
248.121
273.328
278.011
253.512
203.205
140.271
81.6799
39.3354
13.876
7.28426
-2.80558
7.80435
11.7705
15.9765
23.0437
27.3339
30.3286
30.862
30.1068
28.1604
0.0227711
0.0234656
0.0241464
0.0248522
0.025622
0.0264893
0.0274808
0.0286182
0.0299155
0.0313738
0.0329769
0.0346877
0.0364475
0.0381735
0.0397578
0.041067
0.041941
0.0421955
0.0416323
0.0400462
0.0372563
0.0331934
0.0283406
0.0230452
0.0225893
0.0187671
0.0124152
0.00797644
0.00048912
-0.0069321
-0.0141481
-0.0212301
-0.0282774
-0.0350856
-0.0415789
-0.0479843
-0.054148
-0.0603728
-0.0661628
-0.0724204
-0.078083
-0.0841093
-0.0899123
-0.0957226
-0.101655
-0.107944
-0.114498
-0.121532
-0.129195
-0.136751
-0.145923
-0.154625
-0.163253
-0.171444
-0.179681
-0.188863
-0.198526
-0.207581
-0.217428
-0.225795
-0.234645
-0.243708
-0.254149
-0.265596
-0.278448
-0.292954
-0.310366
-0.330099
-0.353639
-0.380863
-0.411741
-0.44904
-0.49198
-0.540189
-0.59745
-0.660854
-0.736385
-0.814045
-0.897397
-0.994747
-1.10196
-1.22782
-1.37053
-1.52382
-1.67614
-1.82562
-1.98735
-2.1674
-2.314
-2.45761
-2.56812
-2.79182
-2.924
-3.05123
-3.09775
-3.08195
-3.02224
-2.94653
-2.84608
-2.75138
-2.62817
-2.50115
-2.37459
-2.18698
-2.00189
-1.79778
-1.33674
-1.13684
-1.18152
-0.274277
-0.00392461
0.333614
0.864124
1.19343
1.72295
2.5694
2.04024
1.04505
-2.78659
1.08488
3.6198
-17.0501
-12.3005
43.9126
-85.724
-89.2938
-79.905
-323.454
-342.568
-296.638
-171.366
-62.3923
1.23027
26.0558
63.2751
48.3132
13.4035
-4.31121
-35.4889
-54.609
-57.3318
-53.261
-44.3007
-33.1683
-20.1775
-5.98607
9.99294
29.6593
38.2577
51.4231
72.1448
86.9837
101.292
115.505
129.873
144.815
160.478
176.895
194.223
214.744
240.158
262.866
269.431
250.555
206.848
149.038
92.7789
50.1504
24.6262
12.1019
8.52672
12.9931
15.2319
21.1973
25.9603
28.4498
30.6786
30.6606
29.4956
26.9299
0.0209959
0.0215323
0.0220532
0.0225824
0.0231477
0.0237766
0.0244917
0.0253079
0.0262298
0.0272483
0.028338
0.0294547
0.0305341
0.0314902
0.0322145
0.0325755
0.03242
0.0315768
0.0298651
0.0271111
0.0231916
0.0181533
0.0125596
0.00661017
0.00369404
-0.00160228
-0.00550938
-0.011601
-0.0199566
-0.0269549
-0.0340213
-0.0410266
-0.0479461
-0.0547172
-0.0612888
-0.0677129
-0.0739644
-0.080131
-0.0860753
-0.092
-0.0977453
-0.103377
-0.108916
-0.114345
-0.119646
-0.124889
-0.130091
-0.135297
-0.140692
-0.145957
-0.151729
-0.157528
-0.163608
-0.169693
-0.176081
-0.182778
-0.189934
-0.197301
-0.205382
-0.21373
-0.222839
-0.232814
-0.244229
-0.257051
-0.271953
-0.28938
-0.30933
-0.332045
-0.358155
-0.388017
-0.422205
-0.461104
-0.5052
-0.556827
-0.612879
-0.677138
-0.748282
-0.828107
-0.916164
-1.00688
-1.11699
-1.21639
-1.3329
-1.44341
-1.58715
-1.72726
-1.87275
-2.01944
-2.15587
-2.2964
-2.39209
-2.46956
-2.52899
-2.56928
-2.57815
-2.59378
-2.5686
-2.55774
-2.51077
-2.47313
-2.38159
-2.29316
-2.1617
-1.98492
-1.843
-1.41015
-1.30181
-0.78834
-1.1392
-0.0419437
0.222649
0.614861
1.23773
1.47076
1.57429
3.05372
1.5655
2.47477
-1.59332
-9.155
15.648
-34.8592
-29.3005
26.3534
-106.385
-174.115
-275.077
-338.837
-280.848
-165.098
-61.3304
-1.06336
34.8692
89.3182
74.218
31.6049
-7.19288
-37.4719
-71.9854
-73.0293
-70.1335
-62.8996
-53.4726
-42.0054
-28.4957
-13.8548
2.37407
21.2102
30.9189
46.3925
68.9119
84.5829
99.699
114.503
129.114
143.836
158.185
173.275
189.09
206.853
230.502
250.859
257.552
241.562
203.114
150.837
98.6447
58.2599
32.8
19.6359
16.3906
17.9033
21.1741
25.9866
28.7519
29.7238
30.317
29.5638
27.9927
24.8586
0.01831
0.0186313
0.0189254
0.0192073
0.0194956
0.0198083
0.0201591
0.0205541
0.0209891
0.0214471
0.021896
0.0222871
0.0225537
0.0226101
0.0223509
0.0216521
0.020373
0.0183612
0.0154647
0.0115543
0.00657905
0.000695736
-0.00553992
-0.0121309
-0.0164475
-0.0224498
-0.0264458
-0.0335344
-0.0407062
-0.0477959
-0.0548329
-0.0618
-0.0686779
-0.0754429
-0.0820713
-0.0885662
-0.0949269
-0.101166
-0.107259
-0.113222
-0.11904
-0.124689
-0.1302
-0.135474
-0.140568
-0.145508
-0.150302
-0.154958
-0.159567
-0.164114
-0.168704
-0.173528
-0.178568
-0.183734
-0.189417
-0.195388
-0.201794
-0.208657
-0.216189
-0.224427
-0.233572
-0.243716
-0.255258
-0.268172
-0.283316
-0.299845
-0.319127
-0.341328
-0.366914
-0.396159
-0.429448
-0.467205
-0.509796
-0.557689
-0.610523
-0.670709
-0.734858
-0.807455
-0.885763
-0.969853
-1.06192
-1.15955
-1.25843
-1.37082
-1.47279
-1.57378
-1.67585
-1.7717
-1.86792
-1.95238
-2.03903
-2.10278
-2.17134
-2.22331
-2.2634
-2.30227
-2.31113
-2.31646
-2.28934
-2.25207
-2.16749
-2.07049
-1.90461
-1.81235
-1.42736
-1.25872
-1.24573
-0.627382
-0.315068
0.0400493
0.443021
0.811863
1.73293
2.43376
0.769757
-1.52634
-2.92639
4.15491
-4.12224
-25.0777
30.7313
-62.5457
-47.2623
-75.1126
-183.514
-278.243
-317.95
-230.445
-127.896
-53.2154
9.94892
53.4616
119.895
100.549
47.644
-5.782
-45.2473
-79.967
-86.1002
-84.6365
-78.9428
-70.3717
-60.0738
-47.417
-33.7621
-19.2162
-3.397
14.0529
24.6416
41.8917
63.8058
80.0817
95.9313
111.272
126.15
140.729
155.448
170.271
185.644
202.599
218.281
231.697
234.063
225.84
192.451
145.95
99.3817
62.8924
39.065
26.8826
23.3499
24.0746
26.8689
30.0258
31.4424
30.6417
29.2482
27.3741
25.6134
22.0398
0.0143603
0.0143995
0.0143913
0.0143433
0.0142652
0.0141655
0.0140486
0.0139117
0.0137431
0.0135199
0.0132063
0.0127521
0.0120918
0.0111441
0.00981227
0.00798507
0.00553975
0.00234845
-0.00169844
-0.0066746
-0.0125571
-0.0191205
-0.0258867
-0.033076
-0.038915
-0.0427874
-0.0484049
-0.0561327
-0.0627499
-0.0694359
-0.0761519
-0.0828631
-0.0895398
-0.096157
-0.102692
-0.109135
-0.115423
-0.121602
-0.127661
-0.13358
-0.139334
-0.144904
-0.150246
-0.155455
-0.160383
-0.16523
-0.169823
-0.174197
-0.178406
-0.182507
-0.18656
-0.190668
-0.194848
-0.19933
-0.203776
-0.208659
-0.214086
-0.220149
-0.22698
-0.234701
-0.243476
-0.253438
-0.264812
-0.277781
-0.292552
-0.309554
-0.328872
-0.35064
-0.375324
-0.403076
-0.434249
-0.469186
-0.507836
-0.551097
-0.597923
-0.650522
-0.705975
-0.76863
-0.833145
-0.905922
-0.97895
-1.06066
-1.14106
-1.22895
-1.31449
-1.40422
-1.49283
-1.57866
-1.66849
-1.74394
-1.83272
-1.89124
-1.97299
-2.01302
-2.07092
-2.09032
-2.11223
-2.08884
-2.07733
-1.9912
-1.94205
-1.76077
-1.69257
-1.34961
-1.31454
-0.922886
-0.834493
-0.427209
0.0895314
0.352547
0.98464
0.801384
1.74987
-0.412142
1.75949
3.06296
-12.9077
10.1274
-19.1981
-42.9332
-15.2618
-68.379
-117.353
-189.866
-299.638
-284.434
-198.072
-104.393
-41.1005
6.54659
78.237
156.66
122.772
60.162
-7.46492
-49.7218
-90.7535
-97.1156
-94.6888
-90.2247
-83.1179
-74.0121
-63.4603
-52.1246
-38.9826
-24.7955
-9.73346
6.44016
18.9365
38.3799
56.479
73.2038
89.5542
105.296
120.436
135.094
148.914
163.172
177.779
192.707
209.231
220.974
220.904
196.5
174.708
134.875
95.1936
63.9377
43.4806
33.1092
29.7585
30.055
31.7333
33.0696
32.535
30.1891
27.1716
24.1837
22.5619
18.898
0.00880079
0.00848683
0.00809568
0.00763055
0.0070945
0.00648833
0.00580848
0.00504531
0.00418157
0.0031909
0.00203654
0.000670326
-0.000967874
-0.00295019
-0.0053599
-0.0082906
-0.0118387
-0.0161343
-0.0211812
-0.0270086
-0.0335412
-0.0405344
-0.0475744
-0.0548887
-0.0613264
-0.0651516
-0.0706212
-0.0778612
-0.0840968
-0.0904426
-0.096831
-0.103244
-0.109655
-0.116031
-0.122342
-0.128564
-0.134687
-0.140828
-0.146771
-0.152495
-0.157982
-0.163215
-0.168182
-0.172861
-0.177328
-0.181311
-0.185087
-0.188687
-0.192157
-0.195557
-0.198957
-0.202432
-0.206072
-0.209921
-0.214209
-0.218898
-0.224099
-0.229931
-0.23653
-0.244045
-0.252655
-0.262526
-0.273864
-0.286838
-0.301675
-0.318466
-0.337513
-0.358879
-0.38301
-0.409861
-0.43987
-0.473001
-0.509518
-0.549702
-0.593124
-0.64117
-0.691691
-0.748474
-0.806077
-0.871955
-0.93598
-1.01015
-1.07956
-1.15948
-1.233
-1.31424
-1.39045
-1.4669
-1.54476
-1.60793
-1.68899
-1.72581
-1.81039
-1.8134
-1.88435
-1.85643
-1.89364
-1.81705
-1.83255
-1.68456
-1.64571
-1.41077
-1.39319
-0.802118
-1.0457
-0.736075
-0.449259
0.0580708
0.852821
0.148854
1.5646
1.56669
0.187389
-3.65982
-2.64208
15.7482
-37.0326
1.25389
-33.2436
-73.0292
-94.0164
-134.92
-249.781
-279.802
-225.313
-132.931
-108.095
-21.487
35.9027
129.466
164.059
136.355
65.0358
-11.9545
-53.0991
-99.3302
-106.105
-106.368
-102.207
-95.6635
-87.5619
-78.2788
-67.922
-56.4871
-43.8161
-30.0211
-15.6399
-0.54637
14.1861
32.4754
48.8661
64.8724
80.6898
95.9776
110.685
124.874
138.531
151.78
165.077
178.636
191.369
199.076
193.514
183.505
152.072
119.122
87.0374
61.9786
45.8537
37.7221
34.9016
34.6354
34.8028
34.1895
31.8571
28.2377
24.5515
21.5226
19.8968
16.3449
0.00125749
0.000466009
-0.000412521
-0.0013856
-0.00245968
-0.00364255
-0.00494496
-0.00638201
-0.00797428
-0.00974884
-0.0117402
-0.013991
-0.016552
-0.0194816
-0.0228442
-0.0267055
-0.0311292
-0.0361376
-0.0418054
-0.0481023
-0.0549146
-0.0620155
-0.0689348
-0.0753681
-0.0818409
-0.0857749
-0.0910434
-0.0981895
-0.104278
-0.110459
-0.116684
-0.122905
-0.129071
-0.135145
-0.141099
-0.146905
-0.15257
-0.15785
-0.162963
-0.167878
-0.172568
-0.177009
-0.181183
-0.185084
-0.188693
-0.192111
-0.195277
-0.198233
-0.201038
-0.203763
-0.206494
-0.209323
-0.212349
-0.215667
-0.219391
-0.223625
-0.228481
-0.234076
-0.240553
-0.248054
-0.256747
-0.266793
-0.278374
-0.291659
-0.306811
-0.323865
-0.343085
-0.364547
-0.388682
-0.415293
-0.444893
-0.477129
-0.512619
-0.550938
-0.592432
-0.637362
-0.684789
-0.737124
-0.790049
-0.85028
-0.907445
-0.974881
-1.03439
-1.10645
-1.16642
-1.23823
-1.29729
-1.36217
-1.4196
-1.46847
-1.52879
-1.54613
-1.61576
-1.59024
-1.65686
-1.59145
-1.6209
-1.52475
-1.50752
-1.34691
-1.30289
-0.8177
-1.13544
-0.88215
-0.361398
-0.120445
0.566298
-0.124144
1.80385
1.49489
0.267408
-4.008
4.25902
-11.6839
-12.7374
13.0955
-46.2417
-56.985
-94.0268
-123.477
-218
-263.414
-201.607
-130.307
-92.839
-46.8405
-2.41668
70.4985
168.629
179.141
138.959
59.8134
-14.3435
-61.7173
-103.638
-109.86
-111.904
-109.546
-104.267
-97.4207
-89.4881
-80.6571
-70.9301
-60.1388
-48.2039
-35.0679
-20.8203
-7.26413
8.84426
25.2387
40.976
56.4889
71.5476
85.9956
99.8078
113.052
125.796
138.01
149.666
160.406
168.655
171.111
166.933
150.43
128.213
101.482
76.855
58.1324
46.3425
40.3784
37.987
36.8858
35.5045
33.2926
29.9003
26.0456
22.9022
20.3883
18.5258
15.269
-0.0075859
-0.00875491
-0.01004
-0.0114488
-0.0129891
-0.0146705
-0.0165051
-0.0185088
-0.0207014
-0.0231073
-0.0257561
-0.0286828
-0.0319276
-0.0355354
-0.0395537
-0.0440288
-0.0490005
-0.0544854
-0.0604821
-0.0669062
-0.0736089
-0.0802611
-0.0870338
-0.0921908
-0.0977235
-0.103541
-0.107024
-0.112686
-0.119578
-0.125921
-0.132052
-0.138228
-0.144175
-0.149873
-0.155322
-0.160527
-0.165488
-0.170274
-0.174805
-0.179075
-0.183073
-0.186786
-0.190203
-0.193317
-0.196126
-0.198642
-0.200886
-0.202893
-0.204718
-0.20643
-0.208123
-0.209904
-0.211898
-0.21424
-0.217078
-0.220565
-0.224861
-0.230125
-0.236517
-0.244191
-0.253282
-0.263904
-0.276169
-0.290203
-0.30596
-0.323497
-0.343088
-0.364947
-0.389391
-0.416019
-0.445331
-0.476753
-0.511462
-0.547854
-0.587751
-0.629088
-0.673795
-0.720586
-0.769341
-0.822123
-0.872894
-0.931013
-0.980628
-1.04146
-1.08625
-1.14536
-1.18185
-1.23434
-1.26047
-1.29908
-1.32137
-1.33279
-1.36038
-1.33112
-1.3679
-1.26185
-1.30756
-1.14653
-1.07951
-0.947295
-1.03133
-0.550156
-0.374066
-0.176166
-0.355112
0.896846
0.17872
0.770424
-1.05549
-6.96019
4.90421
-11.1812
0.684913
-21.4111
-32.4893
-60.1317
-77.1175
-130.433
-205.043
-267.366
-189.291
-103.544
-100.178
-42.2654
-13.315
47.1605
135.058
167.086
168.92
125.73
39.1579
-12.9475
-76.1632
-98.4701
-108.651
-112.755
-112.655
-109.355
-103.807
-96.9842
-89.3904
-81.172
-72.259
-62.4525
-51.7225
-39.5961
-25.2051
-14.5418
1.49026
16.4588
31.2796
45.8651
59.9438
73.3662
86.0743
98.0683
109.326
119.734
129.038
136.709
141.457
141.373
135.313
121.571
103.239
83.4145
65.9517
53.0935
45.1156
40.9306
38.7234
36.8467
34.5149
31.6636
28.4528
25.5088
23.2968
20.9086
18.4985
14.9239
-0.0167605
-0.0183073
-0.0199692
-0.0217565
-0.0236791
-0.0257482
-0.0279769
-0.0303807
-0.032978
-0.0357902
-0.0388424
-0.0421635
-0.0457859
-0.0497458
-0.0540809
-0.0588269
-0.0640094
-0.069636
-0.0756445
-0.0819305
-0.0882302
-0.0939543
-0.100109
-0.104325
-0.109372
-0.114521
-0.119783
-0.125054
-0.131282
-0.135282
-0.13926
-0.148131
-0.153603
-0.158643
-0.16341
-0.167929
-0.172209
-0.176264
-0.18009
-0.183667
-0.186969
-0.189966
-0.192629
-0.194934
-0.196864
-0.19841
-0.199575
-0.200374
-0.200844
-0.201043
-0.20106
-0.201012
-0.201042
-0.201347
-0.202119
-0.203611
-0.206094
-0.209842
-0.215103
-0.222074
-0.230877
-0.241577
-0.254141
-0.268741
-0.284185
-0.30199
-0.321321
-0.344074
-0.368482
-0.394588
-0.422883
-0.452465
-0.485971
-0.520333
-0.558413
-0.59525
-0.636433
-0.675137
-0.719483
-0.761318
-0.80627
-0.850837
-0.89146
-0.93566
-0.965346
-1.00482
-1.01644
-1.05
-1.03826
-1.06375
-1.03145
-1.05287
-1.00737
-1.01446
-0.932768
-0.907075
-0.737853
-0.835598
-0.607513
-0.378785
-0.442806
-0.0388385
0.320959
0.591311
-0.0232182
0.347968
-4.04449
-4.20512
5.78066
-22.2633
-8.99708
-12.9959
-57.4082
-50.3437
-121.917
-145.712
-232.833
-236.048
-122.352
-84.7989
-61.8156
-11.4539
16.4569
74.9387
112.693
134.596
146.565
140.089
94.105
20.5243
-28.0164
-76.3932
-91.5056
-101.74
-108.578
-111.578
-110.781
-106.882
-100.926
-93.8437
-86.42
-78.7534
-70.7426
-62.182
-53.1114
-42.1947
-29.4582
-21.9621
-7.20627
5.63915
18.7417
31.7239
44.3613
56.4469
67.8348
78.424
87.997
96.3539
103.219
108.191
110.454
108.878
102.752
92.5773
79.5195
66.0666
55.0704
47.2378
42.4144
39.717
37.8886
35.9764
33.749
31.3674
29.2297
27.235
25.4228
22.1893
19.2141
15.0835
-0.021767
-0.0234271
-0.0251932
-0.0270747
-0.0290808
-0.0312218
-0.0335094
-0.0359574
-0.0385817
-0.0414008
-0.044436
-0.047712
-0.0512571
-0.0551036
-0.0592871
-0.063845
-0.0688116
-0.0742079
-0.0800175
-0.0861457
-0.0923489
-0.0981798
-0.103263
-0.106696
-0.109623
-0.112453
-0.1155
-0.118836
-0.122398
-0.125993
-0.130226
-0.137694
-0.1444
-0.150169
-0.15533
-0.160016
-0.164276
-0.168138
-0.171612
-0.174693
-0.177368
-0.179624
-0.181448
-0.182828
-0.183755
-0.184223
-0.184231
-0.183786
-0.182908
-0.181632
-0.180019
-0.178143
-0.176166
-0.174318
-0.172273
-0.170773
-0.16994
-0.169917
-0.170859
-0.172914
-0.176237
-0.181001
-0.187296
-0.196176
-0.203097
-0.227428
-0.247985
-0.284951
-0.304289
-0.295181
-0.37281
-0.37323
-0.408126
-0.445448
-0.483566
-0.519013
-0.554732
-0.583514
-0.624261
-0.654639
-0.697447
-0.728353
-0.764687
-0.792152
-0.811867
-0.825919
-0.824701
-0.814508
-0.800105
-0.754735
-0.742977
-0.604957
-0.877649
-0.486711
-0.57436
-0.391227
-0.375686
-0.27836
-0.07474
0.198849
-0.342945
0.0579706
-1.63742
-1.09549
-3.26904
0.0338525
-1.99915
-21.0414
-7.26992
-13.2341
-89.7291
-104.685
-130.791
-202.228
-279.512
-151.868
-78.4827
-48.1093
-4.95308
24.0566
96.3988
92.9018
78.0447
88.8306
99.038
105.54
101.895
69.0184
11.298
-29.9881
-61.5644
-77.0408
-89.5438
-100.225
-107.157
-109.216
-107.034
-102.3
-95.4816
-88.0501
-80.6717
-73.3891
-66.1233
-58.8004
-51.1679
-41.8574
-31.9462
-26.7212
-14.4011
-4.41526
6.05472
16.4471
26.745
36.7317
46.2509
55.128
63.2322
70.1751
75.6527
79.0944
80.1412
78.4185
73.8675
67.0339
58.413
51.598
45.7469
41.8599
39.6693
38.5773
37.7093
36.4965
35.0521
33.4241
31.8702
30.3107
27.8617
23.8786
20.1802
15.256
-0.0231093
-0.0247206
-0.026426
-0.0282336
-0.0301512
-0.0321873
-0.0343516
-0.0366555
-0.0391118
-0.0417353
-0.0445432
-0.047555
-0.0507934
-0.0542841
-0.0580567
-0.0621436
-0.0665789
-0.0713939
-0.0766067
-0.0821999
-0.0880809
-0.0940168
-0.0995648
-0.10404
-0.105659
-0.107596
-0.110236
-0.113375
-0.116816
-0.120088
-0.124121
-0.126952
-0.129498
-0.132071
-0.134811
-0.137606
-0.140346
-0.142977
-0.145457
-0.147741
-0.149796
-0.151593
-0.153108
-0.154324
-0.155226
-0.155803
-0.156049
-0.155963
-0.155553
-0.154832
-0.153827
-0.152571
-0.151161
-0.149579
-0.148082
-0.146551
-0.145144
-0.144006
-0.143358
-0.143502
-0.144877
-0.147974
-0.153824
-0.161688
-0.17447
-0.182919
-0.191887
-0.205357
-0.214945
-0.243005
-0.275515
-0.309933
-0.326833
-0.382453
-0.402585
-0.425448
-0.489865
-0.494642
-0.530047
-0.556523
-0.599146
-0.619005
-0.651653
-0.6724
-0.676477
-0.681694
-0.640727
-0.615307
-0.58517
-0.484809
-0.405015
-0.445673
-0.220972
-0.452942
-0.138473
-0.175853
-0.149846
-0.654399
-1.15966
2.27686
-4.54303
-1.59303
-2.07313
-5.08945
3.90552
-27.1284
-4.48297
-61.6237
-75.1028
-114.637
-145.704
-257.08
-181.535
-98.3066
-89.9172
-10.4714
20.9846
88.0379
106.582
89.5367
85.9059
71.9214
62.872
69.076
76.2598
76.3421
56.8479
15.0339
-21.44
-48.3419
-61.4044
-73.7768
-87.7747
-100.367
-108.114
-109.594
-105.617
-97.8149
-89.8948
-81.7605
-74.2571
-67.4533
-60.819
-54.5367
-47.9797
-40.255
-32.5564
-28.3924
-18.7015
-11.0989
-3.15985
4.68555
12.4177
19.9063
27.0335
33.7181
39.6454
45.2589
49.953
53.3435
54.6008
53.8656
51.6093
48.8447
44.0947
41.2375
39.3692
38.6488
38.7692
39.3351
39.3761
38.7761
37.5357
35.9656
35.4275
33.6094
30.1019
24.9852
20.8515
15.1147
-0.022273
-0.0237449
-0.0252982
-0.026939
-0.0286737
-0.0305086
-0.0324514
-0.0345106
-0.0366961
-0.0390191
-0.0414921
-0.0441294
-0.0469471
-0.0499635
-0.0531989
-0.0566758
-0.0604184
-0.0644505
-0.0687918
-0.0734489
-0.0783995
-0.0835671
-0.0887918
-0.0938286
-0.0982325
-0.102271
-0.106214
-0.11023
-0.114374
-0.118479
-0.122223
-0.119482
-0.118154
-0.118385
-0.119588
-0.121411
-0.123597
-0.125953
-0.128338
-0.130644
-0.132788
-0.134704
-0.136344
-0.137668
-0.138657
-0.139293
-0.139585
-0.139533
-0.139182
-0.138544
-0.137693
-0.136654
-0.135494
-0.134005
-0.133216
-0.132242
-0.131322
-0.13069
-0.130603
-0.131335
-0.133304
-0.136681
-0.142825
-0.149721
-0.166061
-0.161859
-0.163337
-0.169624
-0.185415
-0.198675
-0.209697
-0.226835
-0.239376
-0.262368
-0.309065
-0.351369
-0.380476
-0.416103
-0.438991
-0.484152
-0.505118
-0.514927
-0.529984
-0.537872
-0.637073
-0.36708
-0.588507
-0.447655
-0.349638
-0.336337
-0.0703126
-0.131067
-0.222818
-0.552757
-0.568429
-0.763764
-0.305659
-2.08896
-2.21407
2.4428
-8.55083
-20.9256
2.06937
-20.6334
-48.5488
-29.8011
-103.524
-122.919
-201.103
-201.941
-100.289
-107.595
-54.2623
-5.60852
46.2455
115.457
100.901
94.0337
84.5391
69.9316
62.8655
55.0322
51.4358
54.8981
57.8416
47.5137
21.5024
-8.4895
-31.2231
-43.7942
-54.4002
-69.3259
-87.0133
-101.718
-109.981
-110.902
-105.926
-97.0994
-87.6413
-78.1932
-69.6498
-62.179
-55.9269
-49.8579
-44.1505
-38.0888
-32.545
-26.4321
-22.1867
-15.6389
-9.85086
-4.24137
1.23177
6.48927
11.4808
16.1788
21.0077
24.841
28.1686
30.8218
33.3334
34.6011
35.2039
34.807
33.5118
34.464
35.9738
37.857
39.8367
41.3133
41.4745
41.3386
40.2735
40.0501
38.9569
35.6815
31.2739
25.504
21.0951
14.5575
-0.0201026
-0.0213884
-0.0227441
-0.0241744
-0.0256833
-0.0272751
-0.0289552
-0.0307299
-0.0326069
-0.0345946
-0.0367023
-0.03894
-0.0413186
-0.04385
-0.0465472
-0.0494242
-0.0524962
-0.0557787
-0.0592856
-0.063027
-0.0670011
-0.0711892
-0.0755392
-0.0799678
-0.0843465
-0.088652
-0.0929161
-0.0972039
-0.101558
-0.106021
-0.110261
-0.113084
-0.115246
-0.117278
-0.119357
-0.121499
-0.123673
-0.12583
-0.127924
-0.129894
-0.1317
-0.133276
-0.134597
-0.135586
-0.136269
-0.136529
-0.136496
-0.135978
-0.135232
-0.134004
-0.132682
-0.130915
-0.129177
-0.127203
-0.125323
-0.123606
-0.122035
-0.121025
-0.120389
-0.120663
-0.121784
-0.12409
-0.128438
-0.133483
-0.143123
-0.151621
-0.163338
-0.171795
-0.197116
-0.193862
-0.190607
-0.194744
-0.218192
-0.246367
-0.247461
-0.267201
-0.293086
-0.307087
-0.333593
-0.367089
-0.399622
-0.427265
-0.480351
-0.308674
-0.674713
-0.393857
-0.332592
-0.28331
-0.476467
-0.56997
-0.495051
-0.358329
-1.39194
-1.22363
-1.62035
-2.53236
-3.42502
-2.78824
-3.25323
-15.8458
-9.15614
-47.0805
-37.7742
-43.8358
-134.887
-139.236
-201.724
-141.443
-76.2053
-79.3632
-11.5337
14.6255
77.1995
89.4442
86.9193
93.8015
81.4061
73.4876
65.7209
55.0738
48.0692
43.2181
42.2926
43.3902
40.221
25.8298
4.34203
-13.5572
-24.2315
-31.7718
-44.0734
-63.6806
-86.3822
-103.332
-111.837
-112
-106.302
-97.15
-86.509
-75.9794
-66.6012
-58.6671
-52.2549
-46.3396
-41.2499
-36.4086
-31.6346
-26.8273
-23.9323
-19.0965
-14.9283
-11.0592
-7.33141
-3.80982
-0.455654
2.69329
5.82902
8.13593
10.6379
14.4056
16.4832
19.6986
22.9339
25.0721
29.1133
32.0869
35.3159
38.5591
41.6221
43.6151
44.4954
43.7978
43.5547
42.8285
40.7071
36.4902
31.6084
25.3381
20.9131
13.5472
-0.0172548
-0.0183397
-0.0194911
-0.0207107
-0.0219981
-0.0233518
-0.0247754
-0.0262728
-0.0278538
-0.0295242
-0.031295
-0.0331708
-0.0351615
-0.0372709
-0.0395083
-0.04188
-0.0443952
-0.0470655
-0.0498967
-0.052905
-0.0560833
-0.0594468
-0.0629606
-0.066627
-0.0703773
-0.0742203
-0.0780912
-0.0820552
-0.0860414
-0.0901531
-0.0942285
-0.0980718
-0.1016
-0.104933
-0.10809
-0.111083
-0.113935
-0.116582
-0.119104
-0.121367
-0.123512
-0.1253
-0.127002
-0.128149
-0.129362
-0.129665
-0.130388
-0.129741
-0.129953
-0.128338
-0.128239
-0.125879
-0.124796
-0.12296
-0.121135
-0.119663
-0.11709
-0.116708
-0.114353
-0.115218
-0.113436
-0.116283
-0.115834
-0.121605
-0.123774
-0.132602
-0.137718
-0.154067
-0.159003
-0.180269
-0.198499
-0.196906
-0.247604
-0.269973
-0.243451
-0.224503
-0.288569
-0.350214
-0.328068
-0.345846
-0.393724
-0.410803
-0.327646
-1.11375
0.715943
-1.85466
-0.975561
-0.860124
-0.878761
-1.53901
-0.963406
1.16125
-6.84629
-1.38387
-6.93366
-5.41017
-13.1678
-10.7997
-1.62934
-68.7262
-37.0058
-107.971
-116.185
-157.958
-141.376
-74.9903
-93.1392
-32.7505
-5.51265
35.4429
80.7322
68.7319
74.0655
73.6122
71.6639
73.128
66.1904
59.0838
51.3833
43.6656
38.3677
35.2119
34.5812
33.1634
26.2245
13.0392
0.106807
-7.72716
-11.2907
-16.2796
-30.1545
-54.0396
-81.4172
-102.049
-111.94
-111.815
-105.66
-96.1189
-84.9927
-74.1275
-64.561
-56.6104
-50.0258
-44.3954
-39.6827
-35.5058
-31.5341
-28.0691
-24.8878
-21.6543
-19.2494
-16.4234
-13.9681
-11.8548
-9.70353
-7.76292
-5.95329
-4.0139
-1.4011
2.00928
6.4232
9.04237
13.4756
18.4779
24.8753
30.2102
35.3288
39.8427
43.8393
45.8657
45.5177
45.4066
45.4662
43.9641
40.9599
36.2034
31.1037
24.5869
20.3651
11.9621
-0.0143054
-0.015186
-0.0161641
-0.0172315
-0.0183722
-0.0195496
-0.0207766
-0.0220408
-0.0233876
-0.0248004
-0.0263282
-0.0279365
-0.0296686
-0.0314828
-0.0334141
-0.0354379
-0.03757
-0.039831
-0.0421876
-0.044731
-0.0473343
-0.0501936
-0.0530408
-0.0561943
-0.0593151
-0.0628011
-0.0661037
-0.0698748
-0.0733216
-0.0772232
-0.0807526
-0.0846591
-0.0881504
-0.0918295
-0.0952612
-0.0985875
-0.101922
-0.104789
-0.107959
-0.110292
-0.11329
-0.114927
-0.117877
-0.118424
-0.121676
-0.12049
-0.124485
-0.121142
-0.126159
-0.119895
-0.126935
-0.119204
-0.121978
-0.119577
-0.118896
-0.119942
-0.113337
-0.118117
-0.108898
-0.117023
-0.102906
-0.118282
-0.0989383
-0.121017
-0.102828
-0.124925
-0.105483
-0.152696
-0.110679
-0.149988
-0.178709
-0.14225
-0.254546
-0.270138
-0.210925
-0.324465
-0.369151
-0.394858
-0.722092
-0.546901
-0.813867
-0.567841
-1.11905
-0.916794
-1.47193
-1.41335
-2.28794
-2.16439
-2.24812
-5.8735
-2.21836
-7.30749
-10.019
-11.4001
-16.0637
-8.69723
-44.6041
-31.1265
-76.416
-103.082
-124.408
-132.284
-76.9664
-87.7224
-63.423
-5.58369
18.6976
61.1467
55.2766
53.8098
59.3937
53.4859
56.8135
59.3442
59.0938
58.1098
53.2047
47.3286
41.0042
35.4089
31.6125
29.3129
27.5324
23.6278
16.0572
7.6092
2.14785
0.964399
2.10131
-1.71701
-10.9036
-34.1661
-63.5382
-88.7555
-105.694
-108.258
-103.021
-93.9381
-82.9821
-72.4384
-63.1854
-55.4723
-49.095
-43.7952
-39.371
-35.5913
-32.251
-29.2773
-26.7916
-24.8005
-22.7839
-20.5132
-18.9527
-18.0483
-16.5253
-15.3039
-14.0111
-11.9077
-9.39096
-6.06498
-0.412344
4.69514
9.32396
15.0943
22.0455
29.0381
35.2835
39.7729
42.8408
44.5754
45.4476
46.2274
45.709
43.3801
39.9106
34.8995
29.85
23.3431
19.3062
10.8942
-0.0119947
-0.012601
-0.013473
-0.0145377
-0.0157636
-0.0168632
-0.0180345
-0.019055
-0.0203231
-0.0215013
-0.0230416
-0.0244653
-0.026238
-0.027857
-0.0297399
-0.0315444
-0.0334724
-0.0355604
-0.0375252
-0.040019
-0.0419771
-0.0450071
-0.0467768
-0.0505303
-0.0529108
-0.0572875
-0.0594041
-0.0646447
-0.0660459
-0.0710266
-0.0723786
-0.0773649
-0.0790283
-0.083395
-0.0858361
-0.0890089
-0.0925237
-0.0942034
-0.098769
-0.0988649
-0.104485
-0.102609
-0.109887
-0.104871
-0.115339
-0.105046
-0.120926
-0.102887
-0.127254
-0.0976614
-0.131759
-0.100936
-0.111771
-0.11085
-0.111697
-0.124135
-0.0930892
-0.127698
-0.0853229
-0.131649
-0.0771515
-0.150205
-0.0714738
-0.165335
-0.088267
-0.165326
-0.110075
-0.17863
-0.239858
0.25265
-0.545535
-0.0189273
-0.304913
-0.989896
-0.0497778
0.294175
-1.19208
-1.40044
0.166875
-1.60943
-1.59083
-0.6158
-3.26851
-1.61316
-4.5981
-1.86826
-8.6375
-3.20792
-10.906
-13.3017
-7.59584
-23.8414
-9.05613
-28.908
-36.6927
-41.6454
-81.3999
-96.7829
-113.93
-74.3214
-73.6159
-73.6283
-14.2032
10.4287
47.5821
48.3949
45.7331
50.6176
40.0144
38.6612
41.871
41.6694
44.762
47.1953
47.6872
46.3995
42.671
38.0491
33.2496
29.0998
25.8915
23.1274
19.7442
14.8222
9.21612
4.94069
3.536
5.12929
7.91961
8.16469
4.07613
-0.714573
-16.5107
-52.2638
-81.528
-95.7886
-95.5829
-89.2554
-79.5697
-70.2104
-61.8327
-54.7819
-48.915
-44.02
-39.9173
-36.4142
-33.4304
-30.8215
-28.6933
-27.009
-25.3559
-24.019
-22.9309
-22.161
-21.1736
-20.2237
-19.0978
-16.0877
-14.226
-10.6527
-5.08369
1.94274
6.77855
13.739
21.2064
27.8228
33.6515
38.6208
41.3053
42.9796
44.9949
45.2589
43.9917
41.2387
37.6391
32.5993
27.844
21.4506
17.6577
9.97847
-0.0114358
-0.0116423
-0.0127018
-0.01391
-0.0156713
-0.0161954
-0.017551
-0.0175455
-0.0194001
-0.0196907
-0.0222948
-0.022805
-0.0255673
-0.0260514
-0.0284202
-0.0291611
-0.0308578
-0.0325395
-0.0332665
-0.0362006
-0.0359612
-0.0403094
-0.0384003
-0.0444835
-0.0394814
-0.0475513
-0.0402766
-0.0501671
-0.04125
-0.0542451
-0.0441758
-0.0574072
-0.0484717
-0.0590207
-0.0542684
-0.059134
-0.0608887
-0.0585995
-0.0672093
-0.0581605
-0.0728286
-0.0576711
-0.0781473
-0.0566694
-0.083745
-0.0540522
-0.0914667
-0.0495513
-0.0842697
-0.14547
0.0734433
-0.16761
0.201922
-0.293974
0.168516
-0.322351
-0.0607165
-0.110966
-0.178445
-0.00834782
0.00348728
-0.256051
0.0461474
-0.328738
0.0761999
-0.452729
0.153802
-0.677507
0.259503
-0.926768
0.241921
-1.13246
0.0977704
-1.42771
-0.133751
-1.60877
-0.9152
-1.65999
-2.09561
-1.97157
-3.54806
-3.08526
-5.21137
-5.16956
-8.60144
-6.18841
-15.8455
-11.6839
-28.105
-13.4801
-24.4116
-27.2707
-18.9155
-48.3633
-68.2704
-88.0859
-61.7423
-56.8321
-64.7668
-15.5952
5.54908
34.5017
44.5251
49.2837
45.0275
32.875
30.6798
31.5719
26.4592
27.6023
30.5848
32.2646
35.078
37.1107
37.5918
36.3424
33.4657
29.8863
26.1566
22.6238
19.2153
15.6524
11.4056
7.29697
3.59798
0.881756
-0.169303
0.547583
4.62726
7.93674
13.1337
17.1139
13.1251
-4.67005
-37.0099
-65.4024
-76.8591
-77.3358
-71.6788
-65.0555
-58.6562
-53.0425
-48.1715
-43.9379
-40.4208
-37.266
-34.5456
-32.1742
-30.1747
-28.5551
-27.1901
-26.194
-25.3705
-24.5946
-23.7405
-22.7044
-21.2913
-18.8916
-15.4231
-12.9423
-7.37128
-1.04642
4.7067
12.4906
19.8621
25.8047
31.186
36.6566
39.2985
41.2451
42.4367
42.0957
40.3316
37.351
33.9053
29.0091
24.718
18.5446
15.0593
9.66355
-0.00824065
-0.00817294
-0.00817732
-0.0075804
-0.00926583
-0.00490057
-0.00579616
0.000230754
-0.00368011
0.00164106
-0.00456734
0.00141771
-0.00409811
0.00298623
-0.00016307
0.00584542
0.00627715
0.00651677
0.0170496
0.00806859
0.0183662
0.0106951
0.0272869
0.0120035
0.0364381
0.012518
0.0455409
0.0124686
0.0537534
0.0140111
0.0599748
0.0189073
0.06186
0.0290477
0.0583531
0.0442339
0.0508505
0.0616713
0.0422549
0.0786882
0.0331961
0.0957314
0.021354
0.114151
0.00538685
0.133084
-0.0135825
0.163651
-0.0200449
0.18049
-0.0214674
0.170792
-0.00148393
0.126527
0.0172231
0.0501135
0.0513668
-0.0507286
0.072871
-0.17148
0.0750934
-0.314322
0.0229392
-0.461046
-0.0885452
-0.595128
-0.269291
-0.742058
-0.535648
-0.911783
-0.936655
-1.10904
-1.48154
-1.43459
-2.16372
-1.92421
-3.18238
-2.51968
-4.50624
-3.25583
-6.17534
-4.6544
-7.97595
-7.47102
-9.4817
-12.4734
-11.5683
-9.01729
-9.63653
-9.08577
-14.6393
-24.2355
-59.2806
-51.9718
-71.5844
-62.259
-6.08856
10.7786
33.6511
44.7351
41.3652
31.1203
29.7641
32.8854
27.4882
19.4457
19.3141
19.0521
17.3468
19.3991
22.1937
24.1002
26.2425
27.65
27.7382
26.4703
24.0834
21.105
17.8297
14.3425
10.8147
7.24566
4.05466
1.24785
-1.21047
-2.92558
-4.2969
-3.09866
4.01167
10.0791
17.9988
22.1321
15.8948
13.2925
-7.12674
-35.4412
-51.6993
-52.7556
-54.5074
-51.9059
-49.0275
-46.123
-43.2116
-40.2526
-37.9492
-35.791
-33.7328
-31.7613
-29.88
-28.1846
-26.8204
-25.6289
-24.9849
-24.327
-23.5239
-22.4161
-20.9382
-19.053
-15.5688
-11.4579
-8.26608
-2.21035
3.70083
10.9299
16.9533
22.6418
27.9404
32.2898
34.6006
36.2657
36.6674
35.7937
33.6692
30.369
27.4642
23.1214
19.3957
13.8963
10.9839
6.41784
0.048757
-0.0128795
0.00956917
0.0285207
0.0413885
0.0610286
0.0721776
0.0911543
0.0903593
0.103743
0.0971625
0.112968
0.109973
0.129921
0.131362
0.150221
0.147806
0.161408
0.16284
0.168947
0.176121
0.174585
0.189167
0.179592
0.20157
0.183342
0.211911
0.185541
0.218991
0.187007
0.221774
0.188764
0.219035
0.190949
0.209863
0.192575
0.194203
0.192279
0.173242
0.188645
0.147856
0.180715
0.118226
0.167307
0.0849971
0.146706
0.0494514
0.0987551
-0.00310716
0.0441569
-0.052908
-0.0170106
-0.0952912
-0.0854507
-0.131231
-0.157084
-0.157096
-0.228513
-0.177183
-0.291515
-0.192414
-0.338789
-0.195345
-0.355022
-0.211205
-0.348239
-0.241394
-0.321293
-0.277872
-0.281919
-0.309421
-0.231301
-0.325445
-0.174025
-0.304344
-0.10707
-0.236547
0.00738845
-0.105928
0.174438
0.242545
0.369879
1.06808
1.30232
2.18336
2.83147
5.67432
9.22211
17.5355
-4.84084
-14.9379
-35.2324
-91.2298
-17.6905
11.0081
54.1001
85.9907
39.1618
17.7778
24.2597
22.0469
13.2059
15.533
16.6399
12.1152
8.94426
9.3987
9.5251
9.68743
11.514
13.5468
14.6716
15.6397
15.972
15.2687
13.7616
11.6326
9.30959
7.02022
4.79094
3.02063
1.59215
0.469014
-0.388392
-1.19654
-2.42828
-2.71391
1.71243
8.14582
11.8712
21.8356
14.1506
3.22154
-2.17523
-4.05855
-2.4652
-18.7447
-40.0102
-42.2921
-39.8515
-37.2423
-35.0896
-33.321
-31.8635
-29.645
-27.5021
-25.4568
-23.3847
-21.3587
-19.3941
-17.6789
-16.476
-14.7836
-14.5931
-13.9338
-13.1364
-12.283
-10.2871
-7.69928
-6.44817
-2.75983
0.844271
5.10751
9.63958
13.5086
17.293
20.6906
21.7019
22.659
23.0311
22.3616
21.0363
18.9904
16.0323
15.6452
14.1548
11.6095
8.42232
6.69157
4.01082
-0.122071
-0.131107
-0.139881
-0.151961
-0.166099
-0.179262
-0.193065
-0.206337
-0.222275
-0.238286
-0.257597
-0.276325
-0.298036
-0.318562
-0.342097
-0.364583
-0.389783
-0.415714
-0.444212
-0.473213
-0.503807
-0.535664
-0.567906
-0.602555
-0.636249
-0.673561
-0.708366
-0.747976
-0.783312
-0.824514
-0.859882
-0.901805
-0.936879
-0.97838
-1.01292
-1.05257
-1.08641
-1.1227
-1.15562
-1.18715
-1.21872
-1.24421
-1.27366
-1.29195
-1.3181
-1.32824
-1.3494
-1.35078
-1.36548
-1.35748
-1.36298
-1.34513
-1.33808
-1.31006
-1.28663
-1.24777
-1.20339
-1.15262
-1.08244
-1.01721
-0.916129
-0.83159
-0.694777
-0.581832
-0.405555
-0.251044
-0.0325563
0.183053
0.446968
0.750074
1.06724
1.48907
1.87905
2.44955
2.96334
3.69411
4.45139
5.31161
6.54938
7.46408
9.52618
10.5737
13.5887
15.8298
18.5849
25.5774
25.2058
39.5298
47.1643
24.3016
1.43508
-11.4612
-14.3282
-5.139
-3.29766
7.56567
7.2569
1.37733
-0.00161832
2.07246
1.39489
0.795618
1.77589
1.82264
1.2104
1.10585
1.37335
1.59191
1.75466
2.07744
2.35776
2.37628
2.34233
2.19922
1.91811
1.593
1.26202
0.985242
0.775114
0.600142
0.440101
-0.629881
-1.19589
-1.94647
-3.0159
-4.47127
-6.09756
-7.19178
-7.90352
-5.92921
1.52279
4.33133
4.23148
0.352129
3.7419
19.2151
17.9515
3.42418
-28.3744
-38.8272
-42.7558
-43.5504
-42.5434
-40.345
-37.2555
-33.607
-29.5284
-25.23
-20.6339
-15.364
-10.155
-7.40724
-1.3252
2.9259
7.62277
12.1848
16.6345
20.6931
24.1814
26.8997
28.8287
29.5852
29.2304
27.6441
24.9812
21.8615
16.1682
-3.85142
-6.78179
-6.28141
-5.27095
-3.79807
-2.11858
-0.349544
1.04255
2.1887
2.39773
2.30783
2.1343
1.21735
1.35984
2.09415
2.79704
1.75311
0.442842
-0.440184
-0.750954
-0.692815
-0.515135
-0.236256
0.112064
0.502332
0.870931
1.3497
1.76637
2.18713
2.34316
2.33487
2.17084
2.0225
1.89998
1.54649
0.752988
-0.0851233
-2.03091
8.41199
8.19541
7.74825
7.3325
6.79671
6.18274
5.77842
5.71253
5.97379
6.28889
6.69369
7.03734
7.22907
7.55199
8.42186
9.86876
11.2619
11.1982
9.23936
6.63828
5.60717
4.46328
1.68459
-0.250288
-4.3139
10.3192
10.7862
11.455
11.8093
11.8672
11.5976
11.0402
10.4539
10.063
9.89042
9.90267
9.95353
9.76892
9.48649
9.6739
10.8487
12.3747
12.6377
10.6317
7.34678
3.82957
2.2343
0.255613
-3.59072
-11.5627
10.4313
11.5225
12.3398
12.9634
13.3138
13.4
13.1873
12.8641
12.5157
12.2957
12.2086
12.2238
11.9139
11.339
10.9739
11.7693
13.0875
13.6536
11.5344
7.61706
2.83923
0.403371
-1.29435
-5.64115
-15.9973
10.5115
11.3788
12.2029
12.8599
13.3076
13.5844
13.6467
13.5657
13.4143
13.3415
13.3733
13.5003
13.3124
12.7443
12.1422
12.6247
13.8082
14.5482
12.5402
8.18391
2.61478
-0.461078
-2.22206
-6.89685
-18.7235
10.7199
11.2982
11.926
12.463
12.8615
13.1723
13.3622
13.4346
13.4525
13.5452
13.7364
14.012
14.0183
13.6075
12.9795
13.2231
14.3195
15.2574
13.5213
8.99321
2.93171
-0.803452
-2.61459
-7.36405
-20.1057
11.1365
11.3655
11.7119
12.0474
12.3161
12.5698
12.7888
12.9445
13.0844
13.3175
13.6528
14.0652
14.2626
14.0555
13.4994
13.5807
14.5351
15.6837
14.4143
9.98058
3.5679
-0.83241
-2.65974
-7.29256
-20.5154
11.6341
11.5188
11.5713
11.684
11.7965
11.9555
12.1527
12.3478
12.5728
12.9163
13.368
13.8924
14.2507
14.2436
13.7967
13.7621
14.5373
15.7965
15.0713
11.0182
4.42942
-0.686968
-2.51263
-6.87446
-20.1879
12.0976
11.6892
11.481
11.3889
11.3539
11.4151
11.5718
11.7824
12.0671
12.4947
13.0356
13.6451
14.1266
14.2913
13.9606
13.8366
14.4008
15.6681
15.4293
11.955
5.42985
-0.386637
-2.27828
-6.28782
-19.3277
12.4628
11.8361
11.4268
11.1715
11.0172
10.9959
11.1114
11.3262
11.6524
12.142
12.7475
13.4161
13.9829
14.2811
14.0562
13.8602
14.1945
15.3733
15.5044
12.6949
6.42526
0.298878
-2.29513
-5.57056
-18.1172
12.7208
11.9574
11.4142
11.0456
10.8072
10.7254
10.807
11.021
11.3749
11.9068
12.555
13.2591
13.8764
14.2669
14.1269
13.8701
13.9688
14.9767
15.3454
13.188
7.34494
0.961904
-2.14443
-4.82472
-16.6725
12.9029
12.0762
11.4615
11.0267
10.7375
10.6168
10.6738
10.8847
11.2545
11.8113
12.4825
13.201
13.8383
14.2815
14.2
13.8884
13.7564
14.5303
15.0025
13.4288
8.13306
1.7014
-1.91676
-4.19342
-15.0984
13.0574
12.2257
11.5894
11.1271
10.8139
10.6719
10.7122
10.9181
11.2936
11.8595
12.5365
13.2512
13.8829
14.3429
14.2921
13.927
13.575
14.0724
14.526
13.434
8.74445
2.45939
-1.63011
-3.63234
-13.4972
13.233
12.4366
11.8139
11.3517
11.0339
10.8826
10.9116
11.1107
11.483
12.0442
12.7118
13.4076
14.0127
14.4587
14.4114
13.9909
13.4328
13.6288
13.9617
13.2327
9.16064
3.15344
-1.25937
-3.09479
-11.9642
13.4672
12.7299
12.1424
11.6976
11.3872
11.2341
11.2548
11.4445
11.8059
12.3506
12.9961
13.6606
14.2233
14.6301
14.5615
14.0812
13.3314
13.2154
13.3474
12.8606
9.37417
3.76855
-0.856985
-2.57366
-10.5231
13.7823
13.115
12.5733
12.1551
11.8583
11.7071
11.7202
11.8979
12.242
12.7604
13.3734
13.9969
14.5057
14.8538
14.7424
14.1965
13.2688
12.8412
12.7127
12.3551
9.39195
4.2747
-0.448267
-2.06571
-9.19118
14.1865
13.5911
13.0982
12.7096
12.4284
12.2799
12.285
12.4479
12.7693
13.2541
13.8262
14.4015
14.8488
15.1246
14.9523
14.3339
13.2411
12.51
12.0806
11.7508
9.23124
4.64931
-0.0582909
-1.58113
-7.97406
14.6772
14.1503
13.7042
13.3442
13.0777
12.9308
12.9264
13.0717
13.3663
13.812
14.3371
14.8589
15.2408
15.4362
15.1889
14.4903
13.2443
12.2224
11.4684
11.0782
8.91563
4.87808
0.289043
-1.13804
-6.87939
15.246
14.7808
14.3763
14.0411
13.7863
13.6388
13.6227
13.7478
14.0123
14.4154
14.8895
15.3546
15.6697
15.7819
15.4501
14.6627
13.2745
11.9766
10.8883
10.3629
8.47266
4.9507
0.573981
-0.775111
-5.91996
15.881
15.4691
15.099
14.783
14.5356
14.3844
14.3542
14.4566
14.6887
15.047
15.4683
15.8752
16.1248
16.1546
15.7341
14.85
13.3279
11.7701
10.349
9.62698
7.93142
4.85537
0.789135
-0.559071
-5.10473
16.5699
16.2016
15.8573
15.5537
15.3084
15.1497
15.1029
15.1804
15.3786
15.6915
16.0597
16.4092
16.5961
16.5481
16.0391
15.0525
13.4022
11.5999
9.85557
8.88921
7.31933
4.57598
1.00796
-0.542643
-4.37652
17.3003
16.9649
16.6371
16.3382
16.0892
15.9191
15.8529
15.9038
16.0671
16.3351
16.6519
16.9464
17.0753
16.9561
16.3635
15.2719
13.4962
11.464
9.40977
8.16687
6.65344
4.12491
1.03203
-0.455398
-3.74657
18.06
17.7465
17.4255
17.1233
16.8645
16.6787
16.5907
16.6134
16.7416
16.9661
17.2344
17.4781
17.5552
17.3736
16.7056
15.5108
13.6109
11.3608
9.01018
7.47684
5.93626
3.62671
0.878267
-0.364899
-3.29911
18.8371
18.5345
18.2105
17.8972
17.6225
17.4169
17.3045
17.2977
17.391
17.5743
17.7982
17.9969
18.0298
17.7961
17.0638
15.7722
13.7494
11.2894
8.65341
6.83496
5.18097
3.15487
0.539077
-0.238411
-3.05095
19.62
19.3177
18.9816
18.6497
18.3534
18.1239
17.9846
17.9475
18.0063
18.1511
18.3356
18.4963
18.494
18.2198
17.4366
16.0591
13.9155
11.2513
8.3361
6.25206
4.43496
2.59789
0.280129
-0.322914
-2.93713
20.3988
20.087
19.7303
19.3728
19.0494
18.792
18.6233
18.5547
18.5798
18.6889
18.8398
18.9706
18.943
18.6412
17.8225
16.3743
14.1144
11.249
8.05688
5.73298
3.72942
1.9962
0.0690636
-0.482791
-2.91503
21.1673
20.8365
20.451
20.0609
19.7047
19.4151
19.2144
19.1132
19.1049
19.1813
19.3042
19.414
19.3722
19.0571
18.22
16.7207
14.3518
11.2862
7.81784
5.263
3.06669
1.39835
-0.179197
-0.73599
-2.93295
22.0084
21.6436
21.2148
20.7792
20.379
20.0482
19.8083
19.6695
19.6248
19.668
19.7661
19.8625
19.8175
19.5036
18.6659
17.1341
14.6566
11.3679
7.59752
4.77216
2.38112
0.830441
-0.499048
-1.17271
-3.08954
22.9233
22.4998
22.0056
21.5062
21.0475
20.6644
20.3781
20.197
20.1135
20.1243
20.2027
20.2964
20.2618
19.9651
19.1455
17.6031
15.0158
11.4698
7.36554
4.26712
1.74562
0.262543
-0.890317
-2.02946
-3.27584
23.8205
23.3161
22.738
22.1618
21.6339
21.1917
20.8551
20.6309
20.5096
20.492
20.5586
20.6629
20.6559
20.3965
19.6171
18.0906
15.4063
11.5876
7.13652
3.77861
1.14121
0.153868
-2.07243
-2.6801
-3.49951
24.6746
24.069
23.3892
22.7265
22.1188
21.6102
21.2197
20.9507
20.7921
20.7498
20.8134
20.9442
20.9866
20.7904
20.0811
18.6035
15.8385
11.7349
6.91256
3.33672
0.948231
-0.108869
-3.13432
-3.55192
-3.80677
25.4593
24.7311
23.9305
23.1743
22.4742
21.8919
21.4425
21.1258
20.9292
20.8653
20.9359
21.1132
21.2335
21.1354
20.535
19.1463
16.3247
11.9311
6.71326
2.96658
1.02171
-0.320169
-4.23938
-4.41827
-4.17321
26.0637
25.2119
24.2924
23.4607
22.6571
21.9951
21.4796
21.1093
20.872
20.7899
20.8802
21.1297
21.3662
21.4133
20.9728
19.7203
16.873
12.201
6.5847
2.6699
1.36944
-0.604283
-5.25374
-5.12636
-4.60872
26.7069
25.6711
24.5847
23.5728
22.6326
21.8672
21.2672
20.8317
20.5489
20.4531
20.5807
20.9373
21.3405
21.5956
21.3803
20.3188
17.4848
12.575
6.57961
2.71245
1.52578
-0.734955
-6.0744
-5.82867
-4.94518
27.1307
25.8768
24.6073
23.4023
22.3256
21.4239
20.7102
20.1934
19.8606
19.7595
19.9499
20.4602
21.0959
21.6401
21.7306
20.9213
18.1492
13.0825
6.78631
2.90476
1.69889
-0.767668
-6.62989
-6.44511
-5.17949
27.2623
25.7462
24.2469
22.8758
21.5992
20.5224
19.6713
19.0634
18.6806
18.5902
18.8805
19.6054
20.5552
21.4871
21.9776
21.4904
18.8414
13.7362
7.28524
3.18413
1.88867
-0.680224
-6.84106
-6.90565
-5.28963
26.9415
25.2161
23.4816
21.8046
20.292
19.0032
18.0042
17.295
16.8682
16.8159
17.2569
18.2718
19.6295
21.0595
22.051
21.9643
19.5168
14.5199
8.08679
3.617
2.03994
-0.48294
-6.64375
-7.13613
-5.24537
26.1501
24.0496
21.9874
20.0055
18.2358
16.741
15.5687
14.7532
14.2984
14.3256
14.9822
16.372
18.2339
20.2698
21.8564
22.2523
20.1041
15.3733
9.11132
4.51779
1.81552
-0.119327
-5.93333
-7.09948
-5.02413
24.5162
22.0472
19.648
17.4182
15.3811
13.6376
12.2808
11.3654
10.9121
11.0749
12.0211
13.8691
16.3162
19.0399
21.2873
22.237
20.4967
16.1878
10.2451
5.53476
1.83371
0.087892
-4.40201
-7.06539
-4.63563
22.0503
19.2924
16.585
14.0429
11.7203
9.7269
8.18893
7.19253
6.78319
7.1465
8.45327
10.8229
13.896
17.3344
20.2532
21.792
20.5573
16.8097
11.3176
6.62929
2.17068
0.292692
-2.82501
-6.55937
-4.08136
18.9458
15.8798
12.8935
10.0733
7.47955
5.24533
3.53937
2.49041
2.17346
2.79793
4.51393
7.42571
11.1002
15.1994
18.7188
20.8166
20.1418
17.0579
12.1353
7.67697
3.09362
0.323599
-2.09933
-5.01235
-3.28246
15.6064
12.2962
9.05442
5.96849
3.11013
0.641963
-1.21554
-2.2856
-2.46768
-1.54419
0.586738
3.99919
8.17009
12.7838
16.7391
19.2789
19.142
16.765
12.5013
8.46681
3.87172
1.0533
-1.74764
-3.11407
-2.41011
12.9099
9.36379
5.84447
2.47225
-0.654475
-3.34547
-5.32954
-6.39084
-6.4193
-5.20957
-2.72901
1.05819
5.53097
10.4218
14.5587
17.3306
17.6003
15.8683
12.2837
8.76579
4.42358
1.80328
-0.956636
-1.86019
-1.46008
11.4066
7.52256
3.678
0.00739453
-3.37128
-6.25303
-8.32665
-9.35693
-9.24381
-7.80905
-5.09435
-1.09914
3.46267
8.39431
12.4709
15.2673
15.7696
14.5453
11.5829
8.58466
4.61985
2.31936
-0.157024
-0.76907
-0.553712
10.8024
6.66491
2.5425
-1.39652
-4.9995
-8.04795
-10.1959
-11.204
-10.9943
-9.42141
-6.59673
-2.54493
1.93835
6.74904
10.61
13.3104
13.9075
13.0493
10.6007
8.06539
4.52258
2.66601
0.5143
0.0257177
0.244307
10.569
6.18055
1.81482
-2.33203
-6.07151
-9.1928
-11.3349
-12.2805
-11.9859
-10.3372
-7.50075
-3.51506
0.758058
5.31555
8.83595
11.3392
11.9423
11.3694
9.39282
7.29631
4.22197
2.81138
0.965714
0.613765
0.912529
10.3793
5.83922
1.33481
-2.88256
-6.6497
-9.75492
-11.8303
-12.6925
-12.3307
-10.6547
-7.87353
-4.02833
-0.0323481
4.21901
7.35547
9.62793
10.1614
9.76559
8.15268
6.41065
3.78594
2.79018
1.19887
1.01128
1.42678
10.0903
5.55
1.00846
-3.22052
-6.93419
-9.94809
-11.9089
-12.6802
-12.2773
-10.622
-7.95042
-4.29848
-0.615547
3.30925
6.0536
8.09946
8.52976
8.26241
6.93104
5.47694
3.27948
2.55437
1.305
1.23508
1.74448
9.73989
5.20439
0.708176
-3.44333
-7.02583
-9.88397
-11.6965
-12.3801
-11.9639
-10.3695
-7.84666
-4.42234
-1.06672
2.53123
4.89521
6.73631
7.04829
6.87699
5.75801
4.53536
2.704
2.18469
1.25216
1.26671
1.81553
9.4263
4.86364
0.389348
-3.59755
-6.97751
-9.62357
-11.265
-11.8709
-11.4683
-9.96837
-7.6227
-4.45014
-1.42673
1.85011
3.85113
5.51227
5.69705
5.5974
4.61792
3.59067
2.05302
1.68747
1.00173
1.05217
1.56162
8.41764
5.21281
0.111577
-3.67855
-6.80325
-9.18621
-10.6378
-11.1771
-10.8128
-9.43308
-7.28871
-4.38627
-1.70473
1.25183
2.90167
4.40089
4.43224
4.38715
3.48155
2.6001
1.28226
1.01066
0.462116
0.489271
0.851287
7.81591
3.71982
0.385488
-3.65084
-6.48132
-8.53914
-9.79014
-10.2743
-9.9577
-8.72229
-6.79941
-4.19706
-1.8663
0.736806
2.03824
3.36872
3.21228
3.16001
2.28034
1.47565
0.270697
0.0138821
-0.533894
-0.60429
-0.487662
7.44744
2.29361
0.145903
-3.85229
-5.92094
-7.60123
-8.63154
-9.054
-8.78992
-7.70988
-6.04329
-3.77868
-1.83963
0.327085
1.26142
2.35347
1.96901
1.7429
0.880459
0.0591521
-1.26097
-1.53356
-2.18867
-2.4049
-2.53498
4.91278
1.76064
-1.47855
-2.92813
-4.86081
-6.14779
-6.94884
-7.28069
-7.06509
-6.15286
-4.80687
-2.95661
-1.50686
0.0239049
0.540497
1.19931
0.518843
-0.194989
-0.903225
-1.90435
-3.55599
-3.93289
-4.58495
-4.85431
-5.09792
3.48906
0.989564
-0.467573
-2.28498
-2.93676
-3.74218
-4.33564
-4.50084
-4.36908
-3.76684
-2.73315
-1.60589
-0.875806
-0.455825
-0.325866
-0.517603
-1.55501
-2.43531
-3.96965
-4.70085
-6.17671
-6.53752
-6.96566
-6.99266
-6.58983
2.86281
1.80014
0.845517
0.558787
0.470626
-0.052561
-0.737748
-1.03449
-1.17259
-1.06402
-0.781721
-0.558106
-0.936292
-1.46045
-2.40543
-3.1961
-4.79393
-5.7607
-7.39816
-8.04212
-8.94179
-8.81551
-7.98801
-7.84926
-6.17791
1.29028
1.88005
2.4911
2.81768
2.86867
2.64048
2.25968
1.83347
1.39565
0.915668
0.374707
-0.266605
-0.984679
-1.67039
-2.40695
-3.01706
-3.72434
-4.11677
-4.61845
-4.62492
-4.40283
-4.13514
-3.22457
-3.06478
-1.4484
)
;

boundaryField
{
    inlet
    {
        type            calculated;
        value           uniform 0;
    }
    outlet
    {
        type            calculated;
        value           nonuniform List<scalar> 
57
(
-2.03091
-4.3139
-11.5627
-15.9973
-18.7235
-20.1057
-20.5154
-20.1879
-19.3277
-18.1172
-16.6725
-15.0984
-13.4972
-11.9642
-10.5231
-9.19118
-7.97406
-6.87939
-5.91996
-5.10473
-4.37652
-3.74657
-3.29911
-3.05095
-2.93713
-2.91503
-2.93295
-3.08954
-3.27584
-3.49951
-3.80677
-4.17321
-4.60872
-4.94518
-5.17949
-5.28963
-5.24537
-5.02413
-4.63563
-4.08136
-3.28246
-2.41011
-1.46008
-0.553712
0.244307
0.912529
1.42678
1.74448
1.81553
1.56162
0.851287
-0.487662
-2.53498
-5.09792
-6.58983
-6.17791
-1.4484
)
;
    }
    upperWall
    {
        type            calculated;
        value           nonuniform List<scalar> 
223
(
0.000492055
-0.000544683
0.000419146
-0.00162481
-0.00118112
-0.00551186
-0.00579951
-0.0134021
-0.0140876
-0.0259133
-0.0284328
-0.0410857
-0.0467394
-0.0550156
-0.058776
-0.114189
-0.070413
-0.0990862
-0.122071
-0.131107
-0.139881
-0.151961
-0.166099
-0.179262
-0.193065
-0.206337
-0.222275
-0.238286
-0.257597
-0.276325
-0.298036
-0.318562
-0.342097
-0.364583
-0.389783
-0.415714
-0.444212
-0.473213
-0.503807
-0.535664
-0.567906
-0.602555
-0.636249
-0.673561
-0.708366
-0.747976
-0.783312
-0.824514
-0.859882
-0.901805
-0.936879
-0.97838
-1.01292
-1.05257
-1.08641
-1.1227
-1.15562
-1.18715
-1.21872
-1.24421
-1.27366
-1.29195
-1.3181
-1.32824
-1.3494
-1.35078
-1.36548
-1.35748
-1.36298
-1.34513
-1.33808
-1.31006
-1.28663
-1.24777
-1.20339
-1.15262
-1.08244
-1.01721
-0.916129
-0.83159
-0.694777
-0.581832
-0.405555
-0.251044
-0.0325563
0.183053
0.446968
0.750074
1.06724
1.48907
1.87905
2.44955
2.96334
3.69411
4.45139
5.31161
6.54938
7.46408
9.52618
10.5737
13.5887
15.8298
18.5849
25.5774
25.2058
39.5298
47.1643
24.3016
1.43508
-11.4612
-14.3282
-5.139
-3.29766
7.56567
7.2569
1.37733
-0.00161832
2.07246
1.39489
0.795618
1.77589
1.82264
1.2104
1.10585
1.37335
1.59191
1.75466
2.07744
2.35776
2.37628
2.34233
2.19922
1.91811
1.593
1.26202
0.985242
0.775114
0.600142
0.440101
-0.629881
-1.19589
-1.94647
-3.0159
-4.47127
-6.09756
-7.19178
-7.90352
-5.92921
1.52279
4.33133
4.23148
0.352129
3.7419
19.2151
17.9515
3.42418
-28.3744
-38.8272
-42.7558
-43.5504
-42.5434
-40.345
-37.2555
-33.607
-29.5284
-25.23
-20.6339
-15.364
-10.155
-7.40724
-1.3252
2.9259
7.62277
12.1848
16.6345
20.6931
24.1814
26.8997
28.8287
29.5852
29.2304
27.6441
24.9812
21.8615
16.1682
-3.85142
-6.78179
-6.28141
-5.27095
-3.79807
-2.11858
-0.349544
1.04255
2.1887
2.39773
2.30783
2.1343
1.21735
1.29028
1.88005
2.4911
2.81768
2.86867
2.64048
2.25968
1.83347
1.39565
0.915668
0.374707
-0.266605
-0.984679
-1.67039
-2.40695
-3.01706
-3.72434
-4.11677
-4.61845
-4.62492
-4.40283
-4.13514
-3.22457
-3.06478
-1.4484
)
;
    }
    lowerWall
    {
        type            calculated;
        value           nonuniform List<scalar> 
250
(
-0.000741561
0.000944194
-0.000178735
0.0029746
0.00545661
0.0201579
0.0261054
-0.0611134
0.139907
0.0398171
0.142705
0.0668272
0.123696
0.206216
0.221441
0.313331
0.188087
0.496897
-0.119708
-0.353816
-0.167563
-0.0073849
0.619568
1.73079
-2.95175
-4.90464
-5.82428
-6.85307
-7.39351
-8.13579
-8.45356
-8.78649
-8.94962
-9.02512
-8.83998
-8.43907
-8.12433
-7.51224
-6.69336
-5.71738
-4.64242
-3.78591
-2.70592
-0.847256
0.24164
-0.119708
-0.619141
-1.59329
-2.38653
-3.00171
-3.34752
-3.63529
-3.83243
-4.02086
-4.2675
-4.2652
-4.71437
-5.94768
-5.80034
-4.82083
-4.19577
-3.48393
-1.96233
-1.5348
-0.990317
0.0704918
0.623339
1.28156
1.96463
2.62496
3.23669
3.7034
3.94667
3.72358
2.9623
1.89859
0.959269
0.306152
-0.142871
-0.373204
-0.585119
-0.885818
-1.01883
-1.38189
-1.60781
-2.22505
-2.36006
-1.58997
-2.39826
-3.0936
-8.79261
-11.0009
-12.3626
-13.7944
-14.791
-15.7851
-16.5801
-17.4155
-18.1441
-18.906
-19.5393
-20.2646
-20.8318
-21.4737
-22.0129
-22.5527
-23.0421
-23.4914
-23.9122
-24.2796
-24.6271
-24.9183
-25.1829
-25.3882
-25.5466
-25.6431
-25.68
-25.6683
-25.6132
-25.5327
-25.4132
-25.25
-25.0627
-24.8708
-24.6519
-24.4107
-24.2394
-23.6917
-23.1355
-22.6117
-21.9948
-21.3479
-20.5537
-19.7275
-19.0315
-18.2528
-16.594
-16.0511
-15.5379
-14.4877
-13.4973
-12.5142
-11.4907
-10.4878
-9.4954
-8.51694
-7.57368
-6.66541
-5.80854
-5.00986
-4.28218
-3.62817
-3.04245
-2.52419
-2.09181
-1.74195
-1.45257
-1.26169
-1.07793
-0.655386
-0.722556
-0.59484
-0.834498
-1.14798
-1.79183
-3.09399
-3.28389
-3.58609
-4.12312
-4.81721
-7.16509
-15.6732
-17.1727
-16.4499
-14.8147
-12.7455
-9.99639
-8.18284
-6.47655
-1.80749
0.986631
3.65978
6.56709
9.39025
12.0297
14.455
16.568
18.4478
20.1029
21.8239
23.0236
23.7738
24.6393
25.1394
25.2975
25.1523
24.999
24.3641
23.5216
22.6726
21.4359
19.9561
18.8578
18.0312
17.5646
17.98
19.0216
20.1002
21.3679
21.7988
19.9499
16.4813
12.3941
8.32945
4.62666
1.74385
-0.389231
-1.61394
-2.35288
-2.86545
-2.75297
-2.47812
-1.83218
-1.27623
0.0544499
1.35984
2.09415
2.79704
1.75311
0.442842
-0.440184
-0.750954
-0.692815
-0.515135
-0.236256
0.112064
0.502332
0.870931
1.3497
1.76637
2.18713
2.34316
2.33487
2.17084
2.0225
1.89998
1.54649
0.752988
-0.0851233
-2.03091
)
;
    }
    frontAndBack
    {
        type            empty;
    }
}


// ************************************************************************* //
