/*--------------------------------*- C++ -*----------------------------------*\
| =========                 |                                                 |
| \\      /  F ield         | OpenFOAM: The Open Source CFD Toolbox           |
|  \\    /   O peration     | Version:  2112                                  |
|   \\  /    A nd           | Website:  www.openfoam.com                      |
|    \\/     M anipulation  |                                                 |
\*---------------------------------------------------------------------------*/
FoamFile
{
    version     2.0;
    format      ascii;
    arch        "LSB;label=32;scalar=64";
    class       volScalarField;
    location    "0.07";
    object      ddt0(k);
}
// * * * * * * * * * * * * * * * * * * * * * * * * * * * * * * * * * * * * * //

dimensions      [0 2 -3 0 0 0 0];

internalField   nonuniform List<scalar> 
12885
(
274.244
-1627.81
-1338.32
996.031
2379.05
2273.41
1385.27
-4022.64
-5520.35
-1340.9
2600.61
4923.34
5135.79
3499.27
-4030.43
-8777.52
-6124.12
-1669.34
2735.2
6008.19
7343.05
6137.06
851.187
-3914.75
-5889.5
-5936.86
-4628.84
-2455.76
-10.3785
2182.85
3681.7
4279.19
4046.68
3143.89
1985.08
656.543
-395.408
-1375.3
-2006.95
-2116.79
17.1079
-66.2419
-153.765
74.8036
144.079
146.89
111.628
-86.6385
-750.201
-403.114
370.422
842.386
839.328
583.404
3.62978
-1757.68
-2063.84
-1225.54
190.359
1513.02
2427.38
2504.82
1406.87
-82.229
-1492.94
-2369.55
-2661.14
-2428.01
-1595.57
-358.202
914.33
1908.78
2472.49
2534.07
2266.79
1685.51
1067.45
340.306
-310.935
-802.964
3.47982
-16.7182
-12.2421
-3.24892
11.1368
14.9856
19.7239
-1.88557
-18.0819
-30.111
20.0827
47.3724
50.606
39.5868
4.1808
-68.2803
-248.604
-264.365
-112.821
120.897
341.283
443.864
424.857
313.076
61.4643
-202.44
-495.552
-726.83
-833.433
-724.448
-417.07
-19.0246
424.956
755.827
1008.72
1084.37
1077.25
912.241
701.946
407.232
0.929105
-5.17155
-4.01798
-2.38174
2.54063
4.98595
4.83426
2.859
-0.951599
-4.92871
1.55244
7.791
2.50798
0.282515
-2.46888
-15.0929
-20.3811
-30.079
-23.3589
0.113958
25.9436
42.6771
50.2534
49.542
41.0533
16.5806
-10.6981
-49.329
-98.6687
-127.809
-132.953
-98.087
-48.3919
35.9127
101.466
178.825
238.501
224.313
206.075
279.549
0.194346
-2.15776
-1.92189
-1.14078
0.987097
2.31376
2.22779
1.5552
-0.53626
-1.97715
-0.00249903
1.58357
-0.0207201
-0.334533
-1.20955
-3.83214
-5.12831
-6.66827
-6.17666
-2.91253
2.98127
9.29107
11.9009
12.0999
14.1179
11.9156
2.07155
-1.31132
-5.9501
-13.8198
-21.7612
-23.3439
-22.5581
-14.0751
-5.02012
9.08396
14.5133
19.2905
19.9223
48.5553
-0.0130317
-1.02627
-0.949434
-0.548385
0.511643
1.23906
1.22275
0.726294
-0.326271
-0.856702
-0.139743
0.332075
-0.108032
-0.278418
-0.679984
-1.5083
-2.15117
-2.29268
-1.85673
-1.09102
0.999038
3.25
4.36231
4.83809
5.5002
4.72737
2.55446
0.645177
-0.993975
-3.02285
-6.14043
-7.03501
-7.59691
-7.35121
-5.58229
-3.53114
-1.36041
0.685147
1.47393
6.01057
-0.0477089
-0.488949
-0.45457
-0.247965
0.306513
0.698393
0.676365
0.357396
-0.131132
-0.316252
-0.066012
0.0527857
-0.14299
-0.311917
-0.522761
-0.795263
-0.94168
-0.835089
-0.529973
-0.0304842
0.762992
1.52397
1.92347
2.10184
2.1833
1.86216
1.17858
0.438484
-0.311001
-1.2051
-2.06445
-2.52443
-2.99798
-3.05787
-2.76706
-2.22575
-1.59985
-0.96563
-0.248879
0.352342
-0.0367812
-0.223859
-0.202174
-0.090244
0.19895
0.399477
0.374863
0.197109
-0.0148814
-0.0775659
-0.00581508
-0.0183881
-0.161701
-0.30552
-0.415291
-0.472998
-0.426612
-0.262191
-0.023169
0.265789
0.581344
0.823014
0.921522
0.92105
0.853071
0.675398
0.405461
0.106567
-0.207098
-0.547995
-0.859091
-1.09527
-1.25359
-1.30291
-1.2446
-1.09756
-0.893606
-0.656331
-0.406872
-0.158815
-0.0211936
-0.0958235
-0.0739325
-0.0161547
0.129991
0.228372
0.211148
0.123956
0.0375827
0.017199
0.0206326
-0.0363915
-0.154625
-0.264243
-0.318714
-0.297907
-0.196956
-0.0379773
0.138495
0.299821
0.420239
0.472979
0.454285
0.389398
0.299015
0.187875
0.0673953
-0.0543965
-0.17565
-0.295906
-0.402908
-0.485356
-0.536663
-0.582476
-0.576504
-0.524512
-0.44
-0.336144
-0.225596
-0.113416
-0.0106869
-0.0373774
-0.0173953
0.0121668
0.0811653
0.128776
0.122649
0.0876318
0.0531014
0.0470169
0.0250918
-0.0393829
-0.13283
-0.210321
-0.234861
-0.192624
-0.0930933
0.0352443
0.157865
0.248003
0.290621
0.282247
0.232852
0.160877
0.0825787
0.00827739
-0.0462781
-0.102262
-0.155579
-0.201785
-0.236801
-0.258525
-0.261182
-0.253336
-0.234483
-0.204681
-0.166534
-0.124698
-0.0850523
-0.0543344
-0.00518017
-0.0132152
0.00199617
0.017111
0.0450641
0.0716841
0.0735888
0.070667
0.0621757
0.0515513
0.0205198
-0.0372861
-0.106599
-0.158385
-0.168022
-0.127436
-0.0481216
0.0452511
0.127028
0.179593
0.1958
0.177521
0.133385
0.0752457
0.0146748
-0.041439
-0.0823682
-0.107516
-0.120028
-0.122246
-0.116346
-0.104262
-0.0853405
-0.0482356
-0.0199574
-0.00249501
0.00617826
0.00646612
-0.00171773
-0.0164959
-0.0030476
-0.00491119
0.00433653
0.0139994
0.0248739
0.0369194
0.0425456
0.0547328
0.0659795
0.0551542
0.0217977
-0.0327849
-0.0925825
-0.133745
-0.136572
-0.0957675
-0.0240386
0.0542673
0.11625
0.148136
0.147229
0.119229
0.0739805
0.0217071
-0.0281932
-0.0690801
-0.0999367
-0.104567
-0.0873784
-0.056387
-0.0192202
0.0177168
0.0487104
0.0730342
0.0860999
0.0857933
0.0788524
0.0620739
0.0306412
0.000529616
-0.00185491
-0.00266212
0.00207097
0.00717293
0.0126848
0.0184842
0.0240761
0.0360146
0.049609
0.0501227
0.0256781
-0.0223363
-0.0779293
-0.117509
-0.121122
-0.0829744
-0.0152523
0.056959
0.111848
0.135738
0.125543
0.0887924
0.0385318
-0.014976
-0.0612444
-0.0919485
-0.103766
-0.0958134
-0.0715022
-0.0365734
0.00296216
0.0433324
0.0646234
0.090762
0.0999187
0.0984768
0.0875118
0.0682621
0.0425288
0.0126581
-0.00114854
-0.00198406
-0.000427252
0.00230697
0.0061639
0.00871568
0.0124584
0.0179014
0.0233086
0.0233616
0.0111799
-0.0139947
-0.0439754
-0.0657436
-0.0683597
-0.0482076
-0.0117271
0.0304034
0.0577938
0.0788432
0.0762766
0.0542971
0.0335714
0.00220729
-0.0336206
-0.0517895
-0.0598297
-0.0571406
-0.0457326
-0.0285665
-0.00883684
0.0104641
0.026291
0.0377632
0.043699
0.0440054
0.0390956
0.0297981
0.0171347
0.00213025
-0.000544791
-0.00109229
-0.000590623
0.000806926
0.00291476
0.00461592
0.00517875
0.00505913
0.00384247
0.00164509
-0.0021066
-0.00726041
-0.0122641
-0.01504
-0.0140876
-0.00921463
-0.00154109
0.0060256
0.0127172
0.016981
0.0176985
0.0151235
0.0108057
0.00506124
-0.000740095
-0.00516369
-0.00780984
-0.00874622
-0.00837331
-0.00723243
-0.00587078
-0.00475262
-0.00421331
-0.00440489
-0.00535136
-0.00696715
-0.0090857
-0.0114863
-0.0139241
-0.016132
-0.000200199
-0.000522793
-0.000477719
-2.80225e-05
0.000578271
0.000735915
0.000334601
-0.000907358
-0.0020229
-0.00290585
-0.00262125
-0.000899008
0.00177573
0.00445742
0.00610543
0.00603285
0.00414634
0.00092395
-0.00268882
-0.00573141
-0.00743741
-0.00745274
-0.00586194
-0.00314266
6.43284e-05
0.003104
0.00542249
0.00665232
0.00664111
0.00543491
0.00323492
0.000343601
-0.00288971
-0.00611629
-0.00902536
-0.0113676
-0.0129645
-0.0137079
-0.0135478
-0.0124673
-5.48975e-05
-0.000257827
-0.000418426
-0.000444549
-0.000368962
-0.000357447
-0.000534152
-0.000719641
-0.000878984
-0.000529755
0.000168281
0.00129692
0.00257532
0.00358524
0.00393694
0.00341385
0.00204937
0.000108982
-0.00198945
-0.00380503
-0.00500839
-0.00542567
-0.0050632
-0.00407716
-0.00271383
-0.00124412
9.14102e-05
0.00111837
0.00174301
0.00194891
0.00178188
0.00132992
0.00070268
1.33555e-05
-0.000635343
-0.00116048
-0.00150386
-0.00163337
-0.001541
-0.00123819
-3.2089e-05
-0.000135277
-0.000219213
-0.0001785
1.76654e-05
0.000263631
0.000394739
0.000328727
0.000232163
3.43349e-05
-6.65853e-05
-0.000108511
-0.000124138
-0.000112072
-3.55405e-05
0.000138131
0.000398026
0.000675637
0.000864581
0.000858749
0.000590683
5.87554e-05
-0.000667371
-0.0014657
-0.00219616
-0.00273581
-0.00300401
-0.00297327
-0.00266735
-0.00214819
-0.00149906
-0.000807991
-0.000154481
0.000399325
0.000812665
0.00106615
0.00115881
0.00110341
0.00092051
0.00063282
-0.000160485
-0.00028397
-0.000140595
0.000368257
0.0012009
0.00199954
0.00218694
0.00132818
0.000321828
-0.00148396
-0.00270551
-0.00326433
-0.00316266
-0.00255364
-0.00159828
-0.000458466
0.000672094
0.00160387
0.00220594
0.00242682
0.0023074
0.00195661
0.00148186
0.000938041
0.000324942
-0.000381385
-0.00118689
-0.00203773
-0.0029161
-0.00372517
-0.00436538
-0.00474889
-0.00481866
-0.00455885
-0.00399684
-0.00319605
-0.002244
-0.00123876
-0.000275954
0.000563999
-0.000407273
-0.000668357
-0.000318658
0.000719516
0.00240711
0.00417046
0.00479967
0.00309707
0.000587012
-0.00394405
-0.00708514
-0.00784266
-0.00604772
-0.00277056
0.000439892
0.00226253
0.00211576
0.000370915
-0.00182318
-0.00314639
-0.00275354
-0.000545088
0.00286988
0.00642122
0.00895885
0.00959636
0.0078853
0.00532758
0.000534797
-0.00450373
-0.00915824
-0.0127126
-0.0147065
-0.0149788
-0.0136379
-0.0110003
-0.007508
-0.00364592
0.00012988
0.00345115
-0.000784582
-0.000944371
-9.10709e-05
0.00137943
0.00342323
0.0059518
0.00740313
0.00550437
-0.000518389
-0.00869449
-0.0149406
-0.0159369
-0.00978466
0.000446642
0.00916675
0.0119625
0.00796384
9.40219e-05
-0.00824986
-0.0134138
-0.0133281
-0.00816445
0.000215664
0.00920565
0.0163375
0.0199192
0.0193242
0.0149799
0.00793339
-0.000326758
-0.00832735
-0.0148723
-0.0191968
-0.0210018
-0.0204003
-0.0178114
-0.0138333
-0.00912061
-0.00428041
0.000207124
-0.00100171
0.00118135
0.00463932
0.00665439
0.00551278
0.00485625
0.00590966
0.00475226
-0.00270945
-0.0153665
-0.0274997
-0.0289409
-0.0183296
-0.000356191
0.0159577
0.0232595
0.0194703
0.00550679
-0.0123545
-0.0260903
-0.0302221
-0.0236811
-0.00905182
0.00918279
0.0262692
0.0383562
0.0431872
0.0403271
0.0309829
0.017491
0.00257434
-0.0113493
-0.0225756
-0.0302174
-0.0341138
-0.0346414
-0.0324936
-0.028477
-0.0233529
-0.0177373
-0.000871277
0.0117906
0.0255266
0.0322104
0.0167014
-0.00277921
-0.00915036
-0.00561617
-0.00552517
-0.0168481
-0.0359795
-0.0474492
-0.0402739
-0.0135937
0.0211264
0.0486012
0.0556527
0.0359354
-0.00132521
-0.0394596
-0.0632037
-0.0654189
-0.0476093
-0.0162718
0.0206876
0.0555781
0.0817891
0.0947059
0.0928314
0.0784159
0.056083
0.0304642
0.00499887
-0.0180203
-0.0372762
-0.0523297
-0.0633444
-0.0707404
-0.0749836
-0.0765911
-0.00656092
0.0410727
0.0824199
0.117667
0.0585369
-0.0269346
-0.0650819
-0.0478857
-0.0121104
0.00583721
-0.0141284
-0.0591165
-0.0831024
-0.0590063
0.00406575
0.0821471
0.136898
0.131784
0.060722
-0.0404179
-0.126518
-0.174171
-0.181922
-0.154972
-0.0965426
-0.0123058
0.0867507
0.181512
0.249268
0.282105
0.287496
0.272073
0.236976
0.185048
0.121774
0.0511888
-0.0242394
-0.101062
-0.174086
-0.239542
-0.0605534
0.120733
0.206442
0.327769
0.18008
-0.0985721
-0.236981
-0.180797
-0.0359485
0.0949365
0.121648
0.00203309
-0.140733
-0.198028
-0.150098
0.0345533
0.280037
0.414561
0.314157
0.0605368
-0.197476
-0.407138
-0.575859
-0.683146
-0.670432
-0.50889
-0.175241
0.28926
0.704341
0.976625
1.16403
1.28211
1.26672
1.1095
0.870125
0.5834
0.251256
-0.104285
-0.431038
-0.659492
-0.372295
0.233069
0.456391
0.876406
0.549132
-0.325342
-0.754583
-0.531118
-0.0779281
0.332706
0.548951
0.290343
-0.137731
-0.431475
-0.64353
-0.34548
0.480618
1.13521
1.01456
0.258562
-0.379768
-0.8884
-1.56618
-2.35013
-2.77959
-2.82014
-2.0466
0.0140924
2.17038
3.21916
4.12098
5.1947
5.52296
4.83742
3.97378
3.11657
1.82411
0.265201
-1.22243
-2.74666
-1.76796
0.425873
1.03203
2.43145
1.87219
-1.28735
-2.64728
-1.34328
0.274028
1.08378
1.85573
1.31386
-0.32615
-1.1978
-2.10135
-1.53329
2.35767
6.35366
5.2181
1.82768
-1.36974
-3.73862
-7.53916
-12.0022
-12.6045
-12.7426
-7.40051
-3.52437
18.7876
19.4287
20.8306
26.7462
27.1893
17.1165
9.90926
5.46123
0.000363959
-9.33308
-16.4117
-21.6442
-7.81188
1.32166
3.53924
7.76287
8.56479
-7.07488
-13.3304
-3.47641
7.61096
7.02778
9.40872
9.0753
-8.37115
-15.4719
-23.2472
2.79786
11.7611
50.6673
34.5977
24.5067
9.6932
-14.825
-69.7102
-106.594
-135.803
-127.756
-46.7265
75.4612
169.481
203.259
209.436
196.747
152.374
73.6368
-13.298
-98.46
-167.565
-214.39
-247.687
-270.741
-46.7368
8.35681
44.7811
63.4739
16.5747
-51.3505
-210.396
28.9165
163.011
172.551
139.22
38.7646
-125.65
-727.374
-514.997
6.78335
559.366
842.859
781.366
532.73
259.167
-831.255
-1274.95
-1337.91
-1177.77
-742.091
95.34
1135.58
1852.6
2021.52
1844.01
1240.12
264.375
-609.967
-1234.51
-1616.77
-1786.89
-1775.79
-1681.32
-1465.53
-727.539
45.6757
1389.41
1367.48
552.313
-3123.93
-2244.49
-75.2703
1715.49
2559.08
2413.87
1539.06
-3311.11
-4893.87
-3016.47
-239.157
2288.57
4022.55
4679.71
4093.26
1940.1
-5495.83
-6479.2
-5554.85
-3481.68
-945.335
1553.66
3747.34
5536.85
6431.36
5449.88
2751.05
-257.515
-2738.15
-4380.88
-5170.36
-5218.49
-4662.75
-3681.44
-2405.79
-2.33667
-2.34872
-2.3749
-2.41693
-2.47679
-2.55588
-2.65415
-2.76885
-2.90996
-3.09223
-3.30239
-3.53972
-3.80485
-4.09707
-4.41559
-4.75967
-5.12847
-5.52077
-5.93506
-6.36942
-6.82149
-7.28832
-7.76647
-8.25156
-8.73847
-9.22052
-9.69636
-10.1488
-10.5856
-11.0447
-11.2728
-11.5849
-11.9149
-12.0354
-12.094
-12.0336
-11.8503
-11.5218
-11.0453
-10.4193
-9.61984
-9.07386
-8.02698
-6.33018
-4.39902
-2.13703
-0.113229
2.54766
6.18784
9.08328
10.073
9.33771
7.23254
4.7934
4.76398
9.33586
15.7258
18.8958
17.3988
12.0364
3.80787
-6.1377
-16.7904
-27.436
-37.609
-47.1101
-55.8253
-63.7697
-70.9715
-77.522
-83.5049
-88.9988
-94.0875
-98.8509
-103.382
-107.896
-112.507
-118.058
-123.512
-129.101
-134.808
-140.629
-146.563
-152.601
-158.73
-164.93
-171.174
-177.433
-183.668
-189.838
-195.892
-201.776
-207.431
-212.792
-217.796
-222.378
-226.47
-229.996
-232.886
-235.1
-236.552
-237.115
-237.352
-235.289
-233.054
-231.655
-226.713
-221.78
-215.641
-208.934
-201.175
-192.967
-183.901
-174.008
-163.847
-153.635
-143.035
-132.396
-121.743
-111.524
-101.858
-91.5512
-82.6085
-73.489
-64.6387
-55.6378
-46.0964
-34.3409
-20.9428
-4.72758
15.4573
35.4974
59.061
77.1513
93.5073
105.93
114.867
122.527
129.258
121.848
100.523
19.7936
18.6104
11.2983
-2.20146
-23.9609
-52.0003
-81.1771
-113.999
-146.021
-182.551
-226.779
-264.587
-307.435
-355.39
-401.863
-435.827
-466.838
-497.373
-524.701
-548.579
-568.504
-584.316
-595.36
-601.479
-603.401
-598.708
-590.467
-579.842
-559.921
-538.379
-518.903
-478.458
-453.743
-418.737
-362.96
-326.077
-283.477
-242.072
-181.849
-2.33921
-2.34991
-2.37418
-2.41344
-2.46934
-2.54304
-2.6348
-2.74433
-2.87412
-3.02874
-3.20398
-3.39697
-3.60556
-3.82666
-4.05723
-4.29404
-4.53401
-4.77375
-5.01044
-5.24184
-5.46628
-5.68281
-5.89123
-6.0916
-6.2844
-6.47001
-6.6551
-6.82631
-7.02205
-7.16495
-7.32826
-7.47403
-7.6781
-7.8202
-7.93874
-8.02018
-8.0676
-8.05109
-7.96677
-7.79219
-7.52001
-7.36633
-6.96711
-5.92192
-4.48995
-2.55126
-0.398543
2.36294
5.8272
8.297
8.77536
7.4248
4.60962
1.47547
0.621123
3.60136
7.42448
8.08959
5.31416
0.383617
-5.71576
-12.204
-18.5725
-24.5432
-29.9932
-34.9445
-39.4058
-43.4437
-47.1022
-50.4611
-53.576
-56.4949
-59.2747
-61.9642
-64.638
-67.4035
-70.5295
-73.5917
-76.5854
-79.6075
-82.6591
-85.7361
-88.833
-91.9408
-95.0473
-98.1375
-101.194
-104.195
-107.118
-109.937
-112.623
-115.145
-117.472
-119.571
-121.41
-122.96
-124.189
-125.061
-125.545
-125.633
-125.288
-124.415
-123.256
-121.392
-118.917
-117.413
-113.684
-110.295
-106.373
-102.397
-98.0388
-93.7316
-89.1683
-84.4047
-79.8649
-75.681
-71.6185
-68.0399
-64.3992
-61.7406
-60.1357
-57.8972
-57.1229
-56.4512
-56.1766
-55.9141
-55.1536
-53.0292
-49.016
-41.8959
-30.5862
-15.1633
4.30065
23.9077
44.8242
65.0478
82.3828
97.3535
108.823
107.244
90.3502
35.1094
44.4
53.0851
56.4345
51.4064
40.0779
25.5169
7.6915
-10.5156
-28.4912
-55.9769
-76.2768
-98.7416
-127.032
-152.317
-175.189
-198.541
-220.203
-239.437
-256.67
-271.992
-285.028
-295.521
-302.999
-308.193
-309.419
-308.531
-306.736
-298.825
-289.905
-283.58
-262.317
-252.543
-237.101
-207.988
-188.983
-168.707
-148.22
-115.631
-2.34788
-2.35575
-2.3774
-2.41402
-2.46714
-2.53783
-2.62647
-2.73305
-2.85801
-3.00206
-3.16312
-3.33823
-3.52369
-3.7166
-3.91284
-4.10829
-4.29934
-4.48165
-4.65212
-4.80848
-4.94921
-5.07368
-5.18245
-5.27603
-5.35592
-5.42342
-5.49152
-5.53373
-5.60193
-5.64577
-5.69757
-5.74767
-5.83497
-5.91352
-5.99119
-6.07631
-6.15547
-6.21831
-6.26843
-6.27712
-6.23272
-6.1801
-6.09159
-5.51208
-4.4934
-2.86038
-0.628001
2.27143
5.61045
7.8197
8.03628
6.38566
3.23094
-0.186622
-1.32403
0.942954
3.46604
2.9713
-0.12256
-4.41093
-9.06968
-13.6157
-17.831
-21.6246
-24.9942
-28.0288
-30.7488
-33.2194
-35.466
-37.5577
-39.5264
-41.3986
-43.2151
-45.0019
-46.8072
-48.676
-50.6465
-52.5286
-54.3807
-56.2304
-58.0804
-59.9272
-61.7659
-63.5892
-65.3883
-67.1525
-68.8696
-70.5256
-72.1055
-73.5925
-74.969
-76.2164
-77.316
-78.2493
-78.9995
-79.5532
-79.895
-80.0045
-79.8656
-79.4871
-78.8558
-77.888
-76.7432
-75.4851
-73.632
-72.2364
-69.9706
-67.7888
-65.4076
-63.1284
-60.7394
-58.5168
-56.2339
-53.9599
-52.0002
-50.4101
-49.0182
-48.0222
-47.2632
-47.176
-47.7374
-48.1445
-49.5628
-51.1269
-53.0217
-54.9582
-56.5396
-57.1382
-56.0826
-52.2764
-44.2725
-33.2633
-14.9031
3.65212
24.76
47.3213
67.4529
84.9222
97.6662
97.4039
81.2135
45.5092
55.7433
68.508
75.7297
74.2825
66.7236
55.9805
43.1163
31.0182
18.5087
1.48624
-11.4405
-22.5569
-41.4519
-56.1948
-70.1803
-87.1582
-103.453
-117.927
-131.144
-144.117
-155.553
-165.914
-173.95
-180.49
-184.668
-187.072
-189.222
-186.964
-183.436
-182.639
-170.351
-166.409
-158.141
-141.885
-130.965
-116.98
-106.07
-86.6305
-2.36879
-2.37085
-2.38815
-2.42149
-2.47223
-2.54117
-2.62841
-2.73354
-2.85602
-2.99507
-3.14876
-3.31428
-3.48837
-3.66687
-3.84567
-4.02055
-4.18638
-4.34033
-4.47943
-4.60141
-4.70499
-4.78961
-4.85622
-4.90461
-4.93656
-4.95185
-4.96689
-4.96068
-4.9579
-4.94826
-4.93988
-4.93025
-4.94
-4.95557
-4.98091
-5.02652
-5.07889
-5.15033
-5.23021
-5.30719
-5.36547
-5.39424
-5.45174
-5.13389
-4.42901
-3.06979
-0.816459
2.21012
5.40521
7.36219
7.41118
5.618
2.35532
-1.02408
-2.10595
-0.239407
1.33683
0.0888306
-3.03634
-6.68635
-10.2466
-13.4774
-16.3691
-18.9074
-21.1339
-23.1566
-24.9762
-26.6459
-28.1638
-29.5927
-30.9465
-32.2323
-33.4826
-34.7051
-35.9275
-37.1666
-38.4014
-39.5984
-40.7752
-41.9414
-43.0986
-44.2454
-45.3785
-46.4937
-47.5856
-48.6474
-49.6717
-50.6502
-51.5734
-52.4315
-53.2138
-53.9096
-54.5079
-54.9976
-55.3711
-55.6249
-55.7501
-55.7345
-55.572
-55.28
-54.8522
-54.2098
-53.4914
-52.8415
-51.7245
-50.8393
-49.7239
-48.5531
-47.3442
-46.25
-45.1541
-44.2312
-43.2552
-42.3299
-41.6555
-41.2431
-40.9784
-40.978
-41.2239
-41.8546
-42.8621
-43.8935
-45.5494
-47.3381
-49.3567
-51.4049
-53.1949
-54.2507
-53.978
-51.3662
-45.376
-36.7504
-22.0349
-3.88577
14.191
36.4067
56.7527
74.5104
86.8454
87.0943
72.4914
50.8336
60.4751
72.8638
79.285
77.5793
70.8541
61.7597
51.8341
43.251
34.3159
23.6104
16.1492
9.2007
-2.04117
-9.88292
-16.2011
-27.6097
-38.8991
-49.0605
-57.8413
-68.3936
-77.586
-87.1655
-94.9279
-101.526
-107.526
-111.82
-116.285
-117.874
-117.715
-120.196
-114.133
-113.508
-109.952
-101.918
-95.6985
-86.5372
-80.4879
-69.3668
-2.41484
-2.40569
-2.41572
-2.44466
-2.49356
-2.56261
-2.6513
-2.7585
-2.88272
-3.02214
-3.17429
-3.33609
-3.50394
-3.67384
-3.84158
-4.00331
-4.15566
-4.29489
-4.41833
-4.52404
-4.61061
-4.67735
-4.72289
-4.7502
-4.75826
-4.75898
-4.74368
-4.71603
-4.68319
-4.64557
-4.60545
-4.56446
-4.53258
-4.50823
-4.49504
-4.50034
-4.51962
-4.56659
-4.63245
-4.72504
-4.81751
-4.90588
-4.98662
-4.84088
-4.33175
-3.16682
-0.889437
2.20133
5.20662
6.91355
6.82554
4.98833
1.83921
-1.30833
-2.19913
-0.634783
0.070134
-1.67802
-4.60112
-7.56608
-10.2208
-12.511
-14.5894
-16.4282
-18.0716
-19.6132
-21.0194
-22.325
-23.512
-24.6276
-25.6817
-26.6648
-27.6078
-28.5095
-29.3876
-30.2514
-31.0879
-31.9059
-32.708
-33.4988
-34.2797
-35.0513
-35.8126
-36.5622
-37.2975
-38.0153
-38.7118
-39.3822
-40.0215
-40.624
-41.1835
-41.6937
-42.1473
-42.5352
-42.8592
-43.1177
-43.3025
-43.4062
-43.4296
-43.3901
-43.2323
-43.0152
-42.7214
-42.5035
-41.9962
-41.6036
-41.1787
-40.661
-40.1455
-39.7003
-39.2672
-38.9209
-38.5509
-38.2105
-38.0311
-38.0097
-38.0763
-38.3021
-38.7045
-39.3149
-40.1347
-41.0194
-42.2622
-43.6012
-45.076
-46.5429
-47.7861
-48.4523
-48.0683
-45.9302
-41.0309
-33.8117
-21.8565
-5.46062
9.74902
30.0128
48.8271
65.3383
76.1831
76.367
64.0349
51.6811
59.8564
69.9026
74.451
72.3789
66.6987
59.6084
52.4238
46.5611
40.5107
33.9769
29.7877
25.6035
19.1912
14.544
10.9058
4.4348
-3.06389
-8.92244
-13.3606
-21.5422
-28.076
-36.0183
-42.7333
-47.9389
-54.5364
-59.4611
-64.7731
-68.7848
-70.6625
-74.8997
-73.4663
-74.9199
-74.9266
-72.2586
-69.6237
-64.6168
-61.6671
-56.4039
-2.50725
-2.47886
-2.4778
-2.50104
-2.54926
-2.62131
-2.71547
-2.82944
-2.96046
-3.10551
-3.26119
-3.42378
-3.58938
-3.75391
-3.91323
-4.06408
-4.2032
-4.32803
-4.43649
-4.5271
-4.599
-4.6519
-4.68627
-4.70149
-4.70171
-4.69056
-4.66237
-4.6237
-4.57758
-4.52578
-4.4695
-4.4141
-4.36401
-4.32093
-4.28828
-4.27075
-4.26936
-4.29299
-4.33989
-4.41508
-4.5556
-4.62998
-4.6917
-4.63182
-4.23918
-3.15281
-0.825487
2.26285
5.01297
6.46019
6.28791
4.49362
1.48239
-1.35267
-2.05294
-0.888368
-0.687364
-2.5529
-5.13188
-7.50751
-9.47245
-11.1762
-12.8612
-14.4262
-15.8935
-17.3277
-18.7671
-19.9712
-21.0855
-22.1144
-23.0818
-23.9649
-24.7952
-25.5693
-26.3009
-26.9974
-27.6602
-28.3037
-28.9309
-29.5457
-30.1502
-30.7466
-31.3359
-31.9187
-32.4948
-33.0631
-33.6221
-34.1694
-34.7024
-35.2178
-35.7121
-36.1808
-36.6186
-37.0115
-37.3798
-37.7101
-37.9959
-38.232
-38.4195
-38.5648
-38.6359
-38.6765
-38.6593
-38.6857
-38.5338
-38.4183
-38.3068
-38.1095
-37.9082
-37.7329
-37.5577
-37.4186
-37.2451
-37.0718
-36.9851
-36.9823
-37.0213
-37.1458
-37.3745
-37.7074
-38.1441
-38.6276
-39.2943
-40.0064
-40.7724
-41.4836
-41.9659
-41.9631
-41.1031
-38.8715
-34.508
-28.1739
-18.1938
-4.16854
8.66001
26.1922
42.6516
56.9371
65.7061
65.6272
56.0395
49.5327
56.0308
63.6553
66.9562
65.3798
61.3394
56.464
51.7354
48.0052
44.1836
40.3546
38.0935
35.7377
32.1733
29.6893
27.7086
24.2639
19.6301
15.6183
12.311
7.02107
2.4989
-2.5489
-8.11708
-11.2478
-17.5298
-22.1488
-27.1817
-32.2511
-35.0928
-39.5481
-41.3993
-44.0259
-46.5532
-47.1803
-47.2828
-45.8552
-45.2138
-44.3853
-2.68301
-2.62456
-2.60923
-2.62691
-2.6761
-2.75493
-2.85917
-2.98456
-3.12663
-3.2808
-3.44254
-3.60731
-3.77089
-3.92918
-4.07865
-4.21627
-4.33962
-4.44716
-4.53773
-4.61061
-4.66551
-4.70242
-4.72151
-4.72413
-4.71587
-4.6907
-4.6534
-4.6064
-4.55254
-4.49338
-4.4323
-4.37245
-4.31764
-4.27034
-4.23413
-4.2127
-4.20863
-4.22703
-4.26839
-4.32548
-4.38865
-4.48681
-4.55507
-4.51838
-4.1604
-3.05485
-0.62903
2.39418
4.82653
6.0055
5.75911
4.04423
1.2699
-1.22186
-1.75827
-0.966419
-1.3005
-3.21953
-5.13489
-6.78617
-8.40223
-9.92938
-11.5449
-13.141
-14.6894
-16.1999
-17.5707
-18.936
-20.1934
-21.3301
-22.3867
-23.3364
-24.2101
-25.0072
-25.7409
-26.419
-27.0523
-27.6559
-28.2359
-28.7978
-29.3451
-29.8814
-30.4094
-30.9312
-31.448
-31.9604
-32.4681
-32.97
-33.465
-33.9512
-34.4263
-34.8874
-35.3319
-35.7645
-36.1614
-36.5286
-36.8635
-37.1611
-37.4198
-37.6403
-37.8234
-37.9589
-38.0448
-38.1402
-38.1267
-38.1095
-38.0843
-37.9879
-37.8717
-37.7489
-37.6101
-37.4706
-37.2867
-37.0779
-36.9013
-36.7577
-36.6215
-36.5182
-36.4606
-36.4413
-36.4547
-36.4767
-36.5651
-36.6426
-36.7068
-36.6766
-36.3987
-35.6923
-34.2626
-31.7669
-27.6289
-21.9199
-13.2256
-1.82211
9.1978
23.7489
37.4792
49.0883
55.7694
55.5924
49.0315
46.2428
51.3782
57.2918
60.2071
59.7107
57.4976
54.6934
52.0086
49.9428
47.8169
45.7867
44.7395
43.6292
41.7855
40.457
39.453
37.7148
34.9792
32.5562
30.1548
26.7362
23.6322
19.2703
15.2581
12.3308
8.17986
4.34352
0.0262987
-5.03856
-8.50268
-11.5548
-16.037
-18.8397
-22.9716
-25.1266
-27.0648
-28.5001
-29.5378
-32.0049
-3.04761
-2.92842
-2.8837
-2.88964
-2.93727
-3.02372
-3.13905
-3.2764
-3.42893
-3.59031
-3.755
-3.91777
-4.07394
-4.21967
-4.35222
-4.46976
-4.57124
-4.656
-4.72359
-4.77384
-4.80698
-4.82339
-4.82391
-4.81345
-4.78671
-4.74825
-4.69979
-4.64344
-4.58168
-4.51719
-4.45207
-4.38885
-4.33174
-4.2832
-4.24679
-4.22592
-4.22326
-4.24122
-4.2808
-4.35039
-4.42041
-4.4951
-4.55069
-4.49817
-4.10323
-2.88923
-0.332788
2.56684
4.64264
5.5526
5.21066
3.55449
1.00576
-1.13691
-1.50192
-0.959126
-1.60929
-3.06247
-4.41719
-5.8778
-7.47122
-9.17214
-10.9799
-12.824
-14.6332
-16.382
-18.019
-19.5981
-21.0451
-22.3511
-23.5513
-24.627
-25.6037
-26.4849
-27.2837
-28.009
-28.675
-29.2971
-29.8842
-30.4435
-30.9803
-31.4994
-32.0046
-32.4991
-32.9853
-33.4643
-33.9367
-34.4023
-34.8605
-35.3104
-35.7507
-36.1792
-36.5937
-36.9936
-37.3703
-37.7198
-38.0402
-38.3272
-38.5777
-38.793
-38.9671
-39.1037
-39.1822
-39.2491
-39.2336
-39.1999
-39.1381
-39.016
-38.8607
-38.6763
-38.4629
-38.2229
-37.9295
-37.5909
-37.2439
-36.893
-36.522
-36.1439
-35.7658
-35.3797
-34.9763
-34.5404
-34.0935
-33.5794
-32.9999
-32.3031
-31.3439
-29.996
-28.0239
-25.2484
-21.2108
-16.0169
-8.10921
0.606855
10.2883
21.9622
32.988
42.0353
47.047
47.2368
43.7523
43.5222
47.8418
52.7833
55.8294
56.5303
55.9776
54.9103
53.8439
53.0684
52.2283
51.4317
51.1893
50.9401
50.1679
49.5075
49.0686
48.266
46.7226
45.1904
43.4278
41.1116
38.8018
35.5419
32.4875
29.8315
26.0777
22.7617
19.6196
15.2966
12.2016
8.41579
4.48447
1.41502
-3.79187
-5.85637
-9.08625
-12.5774
-14.6088
-19.1098
-3.7135
-3.48648
-3.38618
-3.36348
-3.39995
-3.48264
-3.59999
-3.73951
-3.89196
-4.04915
-4.20381
-4.35056
-4.48565
-4.60713
-4.71361
-4.80411
-4.87793
-4.93477
-4.97464
-4.99775
-5.00492
-4.99864
-4.9791
-4.94535
-4.90056
-4.84643
-4.78484
-4.71793
-4.64804
-4.57785
-4.51033
-4.44705
-4.39157
-4.34829
-4.31977
-4.30907
-4.3185
-4.34939
-4.40147
-4.47416
-4.55139
-4.62029
-4.64805
-4.54888
-4.06155
-2.66548
0.0174504
2.72876
4.4498
5.09021
4.60526
2.94293
0.588991
-1.14379
-1.16928
-0.943391
-1.45552
-2.39893
-3.67431
-5.24535
-7.07811
-9.11011
-11.241
-13.4146
-15.5447
-17.5902
-19.5242
-21.3577
-23.0304
-24.5505
-25.9356
-27.1791
-28.2999
-29.3055
-30.2087
-31.02
-31.7544
-32.4279
-33.0515
-33.6343
-34.183
-34.7036
-35.2014
-35.6802
-36.1434
-36.5928
-37.0292
-37.4529
-37.864
-38.2621
-38.6468
-39.0168
-39.3703
-39.7057
-40.019
-40.3054
-40.5622
-40.786
-40.9732
-41.1237
-41.2325
-41.291
-41.3067
-41.2791
-41.1908
-41.0685
-40.9056
-40.6868
-40.425
-40.1188
-39.7736
-39.3839
-38.932
-38.4178
-37.8634
-37.2763
-36.6451
-35.9738
-35.2658
-34.5133
-33.7088
-32.8337
-31.9022
-30.8506
-29.6939
-28.4142
-26.8765
-24.9764
-22.5316
-19.5221
-15.5662
-10.6772
-3.81954
3.0925
11.4822
20.6488
29.3378
36.4558
40.4888
41.5794
40.9914
42.6729
46.6779
51.1348
54.4592
56.1803
56.9564
57.2545
57.4356
57.6571
57.793
57.8721
58.1696
58.5057
58.407
58.157
58.0193
57.692
56.8339
55.7905
54.4238
52.7016
50.8014
48.2328
45.7265
43.2414
40.1172
37.1955
34.0658
30.2224
27.4001
24.0824
20.3281
17.2179
12.4841
9.54026
5.01403
2.80434
-0.860752
-6.77362
-4.81011
-4.3785
-4.16759
-4.07767
-4.07426
-4.12736
-4.22403
-4.34439
-4.47478
-4.60549
-4.73044
-4.84587
-4.94923
-5.03844
-5.11215
-5.16958
-5.21047
-5.23491
-5.24363
-5.23599
-5.21906
-5.18548
-5.14062
-5.08584
-5.02287
-4.95357
-4.87999
-4.80431
-4.72892
-4.65642
-4.58962
-4.53131
-4.48285
-4.44915
-4.43383
-4.43866
-4.46528
-4.51424
-4.58383
-4.66901
-4.75563
-4.8214
-4.81996
-4.63809
-4.00643
-2.3835
0.361064
2.82411
4.21281
4.57203
3.86699
2.12207
0.0358795
-0.987497
-0.886278
-0.646546
-0.811695
-1.78727
-3.27412
-5.16406
-7.36229
-9.76432
-12.2538
-14.7647
-17.2171
-19.5764
-21.8152
-23.9088
-25.8298
-27.5843
-29.1786
-30.6141
-31.9045
-33.0596
-34.0919
-35.0131
-35.8383
-36.5835
-37.2615
-37.8826
-38.4553
-38.9869
-39.4836
-39.9506
-40.3919
-40.8102
-41.2066
-41.5814
-41.935
-42.2676
-42.5796
-42.871
-43.1406
-43.387
-43.6079
-43.7999
-43.9603
-44.0863
-44.1748
-44.2239
-44.2293
-44.1813
-44.0836
-43.9299
-43.73
-43.4768
-43.177
-42.82
-42.4107
-41.9485
-41.4362
-40.8679
-40.2296
-39.5136
-38.7311
-37.8914
-36.9869
-36.0126
-34.9692
-33.8479
-32.6527
-31.3487
-29.976
-28.4376
-26.7647
-24.9626
-22.9524
-20.5777
-17.7347
-14.5026
-10.7047
-5.79767
-0.406924
5.86472
12.8386
20.1482
27.1782
33.333
37.1485
39.4878
41.4005
44.5696
48.5922
52.8144
56.3599
58.8214
60.5523
61.8849
63.0052
63.9968
64.8581
65.5768
66.2361
66.9274
67.2268
67.2094
67.1799
67.0221
66.4727
65.6368
64.452
62.9807
61.238
58.9873
56.7507
54.3308
51.5148
48.7575
45.7438
42.3915
39.3889
36.1151
32.7066
29.6469
25.4144
22.1438
17.7912
15.1787
9.68168
5.68191
-6.38695
-5.58728
-5.17836
-4.96351
-4.87717
-4.87529
-4.92001
-4.99681
-5.08474
-5.17515
-5.26134
-5.33855
-5.40354
-5.45427
-5.4896
-5.50917
-5.51327
-5.50141
-5.47942
-5.44067
-5.391
-5.33126
-5.26327
-5.1889
-5.11018
-5.02924
-4.94827
-4.86954
-4.7954
-4.72825
-4.67064
-4.6251
-4.59314
-4.5784
-4.58419
-4.61159
-4.66147
-4.73326
-4.82354
-4.92415
-5.0181
-5.07386
-5.02781
-4.73227
-3.90397
-2.05911
0.644961
2.80451
3.87163
3.90489
2.88127
1.00658
-0.678488
-1.03525
-0.497483
0.0886753
-0.268595
-1.57211
-3.43669
-5.72085
-8.29562
-11.0456
-13.8649
-16.6835
-19.4467
-22.1078
-24.6349
-26.992
-29.1711
-31.1701
-32.9899
-34.6346
-36.1142
-37.4389
-38.6206
-39.6716
-40.6066
-41.4414
-42.1896
-42.8628
-43.4708
-44.0222
-44.5245
-44.9842
-45.4067
-45.7953
-46.1513
-46.4752
-46.7672
-47.0275
-47.2579
-47.4593
-47.6319
-47.7749
-47.8866
-47.9653
-48.0088
-48.0152
-47.9825
-47.9082
-47.7877
-47.6127
-47.3791
-47.0856
-46.7388
-46.3353
-45.8761
-45.3539
-44.7686
-44.1223
-43.4136
-42.6408
-41.7918
-40.8522
-39.8241
-38.7157
-37.526
-36.2378
-34.8501
-33.344
-31.7567
-30.005
-28.2099
-26.2255
-24.0899
-21.7807
-19.4057
-16.5924
-13.4306
-9.78743
-6.09566
-1.62669
3.30327
9.07205
15.1796
21.2869
27.4787
33.6979
37.9581
41.65
45.4353
49.7826
54.0139
58.1236
61.7833
64.7266
67.0268
69.1539
70.9539
72.5338
73.9014
75.0693
76.0114
76.791
77.283
77.319
77.2239
76.9976
76.4524
75.5853
74.3743
72.8879
71.0958
68.8441
66.5978
64.1524
61.3787
58.643
55.7284
52.5573
49.4463
45.976
42.5843
39.5419
35.6849
32.3553
28.2561
25.4091
19.8301
16.3214
-8.3982
-7.01129
-6.30189
-5.90464
-5.70225
-5.61825
-5.60281
-5.62326
-5.66442
-5.71108
-5.75457
-5.78922
-5.81162
-5.8199
-5.81284
-5.79046
-5.75779
-5.7068
-5.64528
-5.57338
-5.49311
-5.40659
-5.31614
-5.22419
-5.13322
-5.04571
-4.96409
-4.89066
-4.82757
-4.77681
-4.74036
-4.72004
-4.71718
-4.73392
-4.77171
-4.83125
-4.91203
-5.01179
-5.12462
-5.23903
-5.33227
-5.35995
-5.23709
-4.78684
-3.73119
-1.74515
0.802272
2.60744
3.32609
2.9642
1.59245
-0.228667
-1.12617
-0.698933
0.274514
0.688471
-0.198046
-1.94666
-4.2228
-6.87175
-9.76727
-12.8024
-15.8911
-18.9858
-22.0274
-24.9585
-27.7477
-30.3664
-32.8032
-35.0511
-37.1077
-38.9756
-40.6618
-42.1751
-43.5264
-44.7276
-45.7928
-46.737
-47.5742
-48.3165
-48.9748
-49.559
-50.0779
-50.5394
-50.9509
-51.3169
-51.6389
-51.9175
-52.152
-52.3423
-52.491
-52.6004
-52.6727
-52.7079
-52.7041
-52.6601
-52.575
-52.4482
-52.2789
-52.0659
-51.8051
-51.4886
-51.1071
-50.6589
-50.1485
-49.5785
-48.9441
-48.2362
-47.4508
-46.5888
-45.6503
-44.6371
-43.5425
-42.3474
-41.0503
-39.6544
-38.1634
-36.5443
-34.7995
-32.8699
-30.8839
-28.61
-26.3428
-23.9431
-21.396
-18.4965
-15.8875
-12.5932
-8.98888
-5.05549
-1.11198
3.16548
7.91904
13.5974
19.6801
25.2021
31.1727
38.3826
43.5275
48.4951
53.5468
58.6934
63.2329
67.329
71.043
74.2899
76.6348
79.5604
81.8432
83.8356
85.5277
86.9388
88.1409
89.6349
90.2896
90.1263
89.725
89.1535
88.277
87.0754
85.5364
83.7097
81.5639
79.0422
75.8847
72.7385
69.7896
66.867
63.8139
60.6409
57.4142
54.1526
50.7625
47.6431
43.9615
40.5984
36.7754
33.4515
29.5782
24.6966
-10.7311
-8.54559
-7.46298
-6.85226
-6.5159
-6.34047
-6.25858
-6.22774
-6.22136
-6.22083
-6.2183
-6.20653
-6.182
-6.14573
-6.09134
-6.02379
-5.94317
-5.851
-5.74941
-5.64085
-5.52802
-5.41388
-5.30156
-5.19427
-5.09514
-5.0071
-4.93276
-4.87437
-4.8337
-4.81211
-4.81058
-4.82949
-4.86937
-4.93034
-5.01199
-5.11323
-5.23163
-5.36279
-5.49704
-5.61736
-5.69215
-5.66294
-5.41997
-4.78436
-3.53329
-1.52905
0.713813
2.1279
2.42623
1.62964
0.127041
-1.00311
-1.06226
-0.0331884
0.994585
0.699939
-0.775714
-2.95335
-5.57413
-8.49825
-11.6183
-14.8545
-18.1598
-21.4749
-24.7308
-27.8901
-30.914
-33.7761
-36.4596
-38.9531
-41.2507
-43.3514
-45.2585
-46.9782
-48.5193
-49.8925
-51.1107
-52.1877
-53.137
-53.9707
-54.7001
-55.3359
-55.888
-56.3662
-56.7806
-57.1376
-57.4389
-57.6857
-57.8758
-58.0072
-58.0837
-58.1082
-58.0865
-58.0197
-57.9035
-57.7366
-57.5188
-57.2503
-56.9325
-56.5664
-56.1505
-55.6783
-55.1364
-54.5195
-53.8324
-53.0821
-52.2595
-51.3486
-50.3392
-49.2274
-48.0143
-46.7061
-45.3042
-43.7927
-42.1801
-40.4665
-38.6486
-36.6674
-34.5572
-32.1254
-29.7767
-26.8195
-23.8475
-21.075
-17.9672
-14.8005
-11.5437
-7.84453
-3.71491
1.07193
5.2716
9.71699
14.608
20.4159
27.4584
33.0493
39.1436
46.677
53.262
59.7873
66.0443
71.6427
76.4826
80.699
84.5484
88.0944
91.9028
95.8064
98.4794
100.749
102.603
104.048
105.219
104.519
103.487
102.893
102.04
100.991
99.5876
97.9176
95.9232
93.636
91.0248
88.0368
84.9268
81.7611
78.4201
75.0787
71.6724
68.2155
64.7128
61.2289
57.5945
54.2951
50.6096
47.1809
43.5358
39.8777
36.7151
32.0056
-13.1791
-10.1088
-8.64524
-7.81942
-7.35499
-7.09667
-6.95282
-6.86873
-6.81171
-6.7624
-6.70948
-6.64655
-6.5703
-6.47931
-6.37356
-6.25413
-6.12296
-5.98258
-5.83605
-5.68689
-5.53895
-5.39635
-5.26325
-5.14381
-5.04188
-4.96074
-4.90302
-4.87062
-4.86455
-4.88498
-4.93121
-5.00199
-5.09595
-5.21099
-5.34447
-5.49283
-5.65111
-5.81065
-5.95723
-6.06671
-6.09712
-5.96697
-5.57757
-4.75794
-3.42116
-1.56525
0.250077
1.20882
1.01971
-0.0756279
-1.28554
-1.57562
-0.677098
0.695685
1.02787
-0.0471196
-2.02234
-4.52114
-7.36213
-10.4353
-13.6682
-17.0274
-20.4619
-23.9029
-27.3074
-30.6344
-33.8458
-36.9134
-39.8158
-42.5372
-45.0675
-47.4009
-49.5358
-51.4744
-53.2223
-54.7879
-56.1822
-57.4175
-58.5057
-59.4581
-60.2854
-60.998
-61.6066
-62.1216
-62.5582
-62.9255
-63.2252
-63.4604
-63.6269
-63.7194
-63.7398
-63.6981
-63.6017
-63.4463
-63.2316
-62.9521
-62.6063
-62.194
-61.7178
-61.1819
-60.59
-59.9391
-59.2146
-58.4094
-57.5291
-56.5831
-55.5595
-54.4308
-53.1753
-51.7805
-50.2419
-48.5649
-46.7556
-44.8105
-42.773
-40.6677
-38.4721
-36.0548
-33.6044
-30.476
-27.6857
-24.1227
-20.3955
-16.5944
-12.9979
-9.32408
-5.46641
-1.25996
3.4933
9.73716
14.3827
19.438
24.7682
30.6924
38.5191
45.3955
52.475
59.5953
67.7515
75.9331
83.6912
91.8983
97.1019
101.621
105.857
109.84
112.752
113.186
115.599
117.832
119.576
120.81
121.55
122.086
122.081
120.972
119.357
117.446
115.195
112.591
109.621
106.35
102.765
98.8723
94.873
90.7998
86.7657
82.8179
78.8685
74.9279
71.0099
67.1438
63.1572
59.5952
55.7408
52.1774
48.5333
44.7554
41.6694
37.4482
-15.3653
-11.5486
-9.80074
-8.82587
-8.27717
-7.9614
-7.76899
-7.63752
-7.53139
-7.4304
-7.32325
-7.2039
-7.06948
-6.91939
-6.7544
-6.57646
-6.38846
-6.19405
-5.99764
-5.8042
-5.6192
-5.4483
-5.29702
-5.17035
-5.07254
-5.00694
-4.97587
-4.98017
-5.01935
-5.09178
-5.19468
-5.3247
-5.47796
-5.64992
-5.83523
-6.02733
-6.21759
-6.39265
-6.53338
-6.59231
-6.54884
-6.30593
-5.77546
-4.86748
-3.59706
-2.0495
-0.72128
-0.277875
-0.759909
-1.60322
-1.94558
-1.35295
-0.0930943
0.71663
0.147457
-1.5471
-3.85148
-6.51226
-9.41354
-12.4946
-15.7307
-19.094
-22.5269
-25.9909
-29.4457
-32.8516
-36.1724
-39.3781
-42.4442
-45.3509
-48.0833
-50.6301
-52.9835
-55.1403
-57.1016
-58.8725
-60.4612
-61.8778
-63.1323
-64.2334
-65.1899
-66.0111
-66.7062
-67.2824
-67.7645
-68.1661
-68.4874
-68.7349
-68.9047
-68.985
-68.9737
-68.8888
-68.743
-68.529
-68.2434
-67.8759
-67.4203
-66.8744
-66.239
-65.519
-64.7224
-63.8524
-62.9002
-61.8638
-60.7614
-59.5958
-58.3528
-56.9886
-55.4667
-53.762
-51.8567
-49.7406
-47.4039
-44.8454
-42.1394
-39.5039
-36.8577
-33.8182
-30.8713
-27.457
-23.7645
-19.5997
-14.947
-9.67037
-5.35549
-0.878928
3.73906
8.68366
14.0289
21.0179
26.6175
33.3084
40.1398
47.3222
55.0141
64.4981
75.892
85.3011
94.4706
103.178
111.012
114.009
118.437
122.804
126.935
130.797
134.535
138.797
141.78
143.986
145.469
146.274
146.483
146.266
145.13
142.978
140.214
137.153
133.76
129.887
125.552
120.893
115.95
110.718
105.385
100.129
95.0945
90.3037
85.5826
80.9257
76.4235
72.0114
67.5028
63.6128
59.4024
55.6648
51.8539
48.1058
44.6584
41.0128
-16.8796
-12.7978
-11.0021
-10.003
-9.43132
-9.08553
-8.85476
-8.67754
-8.51963
-8.36196
-8.19412
-8.01064
-7.80962
-7.59155
-7.35862
-7.11404
-6.86197
-6.60765
-6.3572
-6.1174
-5.89536
-5.6982
-5.53264
-5.40457
-5.31854
-5.2774
-5.2821
-5.33164
-5.4233
-5.55285
-5.7152
-5.90481
-6.11514
-6.33861
-6.56638
-6.78693
-6.99134
-7.16032
-7.24842
-7.25742
-7.11848
-6.77502
-6.17683
-5.31083
-4.25216
-3.09492
-2.24256
-2.02541
-2.2247
-2.25787
-1.8245
-1.00054
-0.245042
-0.379814
-1.66304
-3.70621
-6.12233
-8.74582
-11.5318
-14.4796
-17.5605
-20.7578
-24.0419
-27.3836
-30.748
-34.1008
-37.4093
-40.6436
-43.777
-46.787
-49.6543
-52.362
-54.8951
-57.2434
-59.4022
-61.3723
-63.1586
-64.7685
-66.2095
-67.4871
-68.6058
-69.5719
-70.3904
-71.0611
-71.6192
-72.0829
-72.4492
-72.728
-72.9242
-73.02
-73.0123
-72.9142
-72.752
-72.5245
-72.2121
-71.7993
-71.2743
-70.6291
-69.8587
-68.962
-67.9431
-66.8062
-65.5486
-64.169
-62.7981
-61.3787
-59.882
-58.2465
-56.4232
-54.3797
-52.0853
-49.5066
-46.6004
-43.3021
-39.4818
-36.1161
-32.7191
-29.248
-25.4617
-21.3248
-16.8497
-11.9462
-6.56893
-0.0418826
5.15899
11.4056
17.5995
24.0333
30.8069
37.736
46.795
57.2735
66.4957
76.0514
86.1939
96.5173
102.548
110.967
119.371
127.298
134.525
142.104
147.991
153.074
157.652
161.782
165.62
168.973
171.66
173.395
174.166
174.207
173.538
172.251
169.902
166.202
161.888
157.505
152.863
147.592
141.67
135.379
128.876
122.103
115.252
108.687
102.533
96.8223
91.2399
85.6882
80.5091
75.4391
70.1814
65.9905
61.1729
57.2358
53.115
49.549
44.4895
42.6518
-17.4713
-14.0192
-12.4951
-11.5937
-11.0337
-10.658
-10.3771
-10.1396
-9.91575
-9.68809
-9.44695
-9.18792
-8.90973
-8.6136
-8.30269
-7.98202
-7.65807
-7.33843
-7.03148
-6.74599
-6.49074
-6.27393
-6.10276
-5.983
-5.91845
-5.9103
-5.95629
-6.05246
-6.19377
-6.37426
-6.58593
-6.82084
-7.07007
-7.32092
-7.57992
-7.75565
-7.94549
-8.06884
-8.10485
-8.03128
-7.81768
-7.43669
-6.87586
-6.15542
-5.34507
-4.49139
-3.79294
-3.34412
-2.93789
-2.51542
-2.07103
-1.7427
-1.85412
-2.74266
-4.35614
-6.41234
-8.66788
-11.0392
-13.5327
-16.1364
-18.8589
-21.6946
-24.6319
-27.6513
-30.7288
-33.8405
-36.9586
-40.0553
-43.1032
-46.0782
-48.9584
-51.7224
-54.3479
-56.8165
-59.1169
-61.2447
-63.2006
-64.9901
-66.6184
-68.0879
-69.3935
-70.5324
-71.5102
-72.3484
-73.0446
-73.5842
-74.0126
-74.3457
-74.5885
-74.7064
-74.736
-74.6762
-74.5556
-74.3685
-74.0876
-73.6887
-73.1547
-72.4717
-71.6271
-70.6087
-69.4073
-68.0208
-66.4115
-64.4501
-62.7526
-61.0455
-59.2333
-57.2402
-55.0195
-52.5439
-49.7753
-46.6736
-43.1752
-39.1945
-34.4023
-29.9139
-25.6988
-20.929
-15.9166
-10.5153
-4.73178
1.42319
7.95276
14.8654
23.4789
32.8496
41.4967
50.3888
59.58
69.1516
78.9914
85.2468
94.2673
103.929
113.665
123.405
134.135
143.334
151.665
159.395
166.639
173.537
179.654
185.015
189.742
193.755
197.143
199.802
201.799
202.544
201.846
200.657
198.644
195.788
191.684
185.6
179.14
173.338
167.367
160.353
152.301
143.843
135.456
126.99
118.472
110.392
102.958
96.232
89.8009
83.308
77.6423
72.2407
66.392
62.5346
57.3605
53.1867
50.1871
44.1438
42.268
39.3546
-17.2282
-15.1757
-14.2139
-13.5386
-13.0403
-12.6499
-12.3205
-12.0202
-11.7272
-11.4272
-11.1111
-10.7735
-10.4129
-10.0343
-9.64362
-9.24813
-8.85704
-8.48067
-8.12969
-7.8144
-7.54421
-7.32694
-7.16819
-7.07197
-7.03869
-7.06546
-7.14798
-7.28084
-7.4551
-7.66304
-7.89316
-8.13448
-8.39878
-8.57681
-8.80649
-8.98629
-9.11988
-9.19389
-9.19314
-9.10175
-8.905
-8.59463
-8.16764
-7.63144
-7.00025
-6.29976
-5.63833
-5.11868
-4.70334
-4.31019
-4.28832
-4.62887
-5.34289
-6.48483
-7.96905
-9.65217
-11.4444
-13.314
-15.2551
-17.2782
-19.3961
-21.614
-23.9327
-26.3581
-28.893
-31.5085
-34.1895
-36.9139
-39.6535
-42.3844
-45.0801
-47.7206
-50.2788
-52.7295
-55.0546
-57.2436
-59.2907
-61.2018
-62.9844
-64.6335
-66.1345
-67.4719
-68.6462
-69.6784
-70.5517
-71.2466
-71.812
-72.2605
-72.5808
-72.6862
-72.7983
-72.8571
-72.8594
-72.783
-72.5932
-72.2621
-71.7697
-71.0983
-70.2268
-69.1248
-67.7566
-66.1461
-64.2644
-61.7885
-59.7631
-57.5443
-55.1697
-52.5514
-49.6335
-46.4096
-42.8165
-38.8644
-34.6554
-29.7088
-25.1006
-18.9254
-11.7297
-4.98225
2.05753
9.53576
17.4341
25.705
34.3273
43.2794
52.1341
58.8459
67.8793
77.5363
87.2543
96.9739
106.89
118.324
128.74
138.577
148.062
157.345
166.508
175.183
183.338
190.955
198.125
204.866
210.925
216.062
220.434
223.651
226.058
227.497
227.96
226.917
223.337
220.373
216.439
210.715
203.504
193.843
183.082
173.701
164.138
153.633
142.713
132.124
121.995
112.262
102.788
93.9008
85.9833
78.8387
72.0875
65.2049
59.5363
54.6464
48.9304
46.215
41.5849
37.3903
36.0139
32.1071
29.9771
27.5363
-16.1432
-15.4964
-15.151
-14.8566
-14.5925
-14.3471
-14.1038
-13.8508
-13.5783
-13.2787
-12.9502
-12.5915
-12.1693
-11.6954
-11.2161
-10.7475
-10.3031
-9.90315
-9.5638
-9.29396
-9.09554
-8.96676
-8.89526
-8.87677
-8.91309
-9.00161
-9.13604
-9.3115
-9.52033
-9.8205
-10.0855
-10.2778
-10.579
-10.8566
-11.1227
-11.3625
-11.5809
-11.7662
-11.9047
-11.9831
-11.9888
-11.9116
-11.7478
-11.5015
-11.2148
-10.873
-10.5149
-10.233
-10.0544
-10.1103
-10.3652
-10.7977
-11.4149
-12.2073
-13.116
-14.085
-15.0762
-16.0894
-17.1341
-18.2278
-19.3906
-20.6454
-22.0244
-23.5606
-25.2291
-26.9842
-28.8651
-30.8725
-32.9802
-35.1661
-37.3683
-39.5868
-41.8025
-43.9917
-46.1326
-48.2062
-50.1884
-52.0869
-53.9194
-55.6751
-57.3263
-58.8496
-60.2296
-61.4498
-62.5274
-63.4716
-64.2457
-64.8205
-65.211
-65.3503
-65.6643
-65.8456
-65.9438
-65.9468
-65.8076
-65.4901
-64.9711
-64.2322
-63.2524
-61.9888
-60.279
-58.4843
-56.4669
-54.2085
-51.4075
-48.3586
-45.0097
-41.3302
-37.2208
-32.7767
-27.8621
-22.0191
-16.97
-9.98038
-3.43531
3.32743
9.29485
16.6655
24.684
33.1083
41.8097
50.6862
59.7771
69.203
79.204
90.4304
101.024
111.285
121.277
131.096
140.916
150.906
160.717
170.22
179.457
188.454
197.141
205.486
213.458
220.749
227.397
233.49
238.911
242.848
245.788
247.069
247.113
246.869
243.864
239.424
231.804
222.349
213.225
202.337
190.66
177.238
161.133
150.845
139.313
124.938
110.554
97.972
86.4449
75.8961
66.8568
59.3029
52.349
45.0381
39.1592
34.2243
30.4542
28.1192
24.4753
22.4329
21.1709
18.3502
17.2348
15.7289
14.9372
14.4342
-15.102
-14.9382
-14.8322
-14.7201
-14.5953
-14.4552
-14.2988
-14.1152
-13.9016
-13.6634
-13.4093
-13.1442
-12.876
-12.6138
-12.37
-12.1542
-11.979
-11.8508
-11.7721
-11.7435
-11.7619
-11.8008
-11.8884
-12.0431
-12.2581
-12.5649
-12.795
-13.2169
-13.6853
-14.1858
-14.7088
-15.2532
-15.8401
-16.4549
-17.0888
-17.748
-18.4215
-19.1004
-19.7757
-20.4378
-21.077
-21.6693
-22.1897
-22.6308
-23.0045
-23.3346
-23.5861
-23.7529
-23.8697
-24.0131
-24.0896
-24.0545
-23.9197
-23.675
-23.323
-22.8836
-22.3856
-21.8506
-21.3098
-20.7891
-20.3189
-19.9541
-19.8187
-20.1698
-20.6633
-20.9614
-21.5144
-22.3273
-23.3576
-24.5634
-25.7364
-27.0363
-28.4353
-29.9282
-31.4907
-33.0848
-34.707
-36.3553
-38.0005
-39.6324
-41.231
-42.7621
-44.2003
-45.532
-46.756
-47.8995
-48.8834
-49.7227
-50.3759
-51.0498
-51.6499
-52.0742
-52.32
-52.3858
-52.2487
-51.8787
-51.2496
-50.3445
-49.1646
-47.7531
-46.3644
-44.3894
-41.9786
-39.1122
-35.7767
-32.0354
-27.8444
-23.5068
-18.5601
-13.111
-8.47923
-1.15486
5.23065
12.1
19.3669
27.2039
35.9484
44.6937
53.6413
62.7845
72.0468
81.4249
91.0206
100.817
110.829
121.009
131.201
141.314
151.255
160.991
170.599
180.172
189.651
198.859
207.835
216.537
224.639
232.196
239.401
245.579
250.56
254.897
258.494
259.942
258.944
257.65
251.961
244.457
235.841
226.558
213.845
195.22
186.592
171.604
151.759
132.51
117.681
96.8308
78.021
64.2284
53.039
44.7617
37.92
32.0404
27.4206
24.0845
20.5198
18.2344
16.8465
14.9082
13.3393
11.7121
9.73792
9.09333
7.98544
6.09117
5.78059
5.3897
5.12197
4.4744
-15.5116
-14.3307
-13.7628
-13.3376
-13.0226
-12.7864
-12.6072
-12.4711
-12.3705
-12.3035
-12.2296
-12.1576
-12.0984
-12.0642
-12.068
-12.1368
-12.268
-12.467
-12.7392
-13.0885
-13.5666
-13.9679
-14.5637
-15.2312
-15.984
-16.8195
-17.718
-18.6487
-19.6408
-20.699
-21.8311
-23.0378
-24.3124
-25.6555
-27.0614
-28.5165
-29.9711
-31.4355
-32.9205
-34.4431
-36.0197
-37.6271
-39.3555
-40.4916
-41.4654
-42.3836
-43.1348
-43.6022
-43.783
-43.6454
-43.1357
-42.2291
-40.9345
-39.2782
-37.3161
-35.1216
-32.7755
-30.3522
-27.9237
-25.558
-23.3141
-21.2573
-19.464
-17.9764
-16.5605
-15.429
-14.5962
-14.0985
-13.9085
-13.9793
-14.1076
-14.3864
-14.7277
-15.3037
-16.0879
-17.0365
-18.0894
-19.2311
-20.4368
-21.6642
-22.9501
-24.2605
-25.554
-26.8044
-27.9543
-29.0599
-30.1523
-31.2315
-32.5234
-33.5728
-34.397
-34.9507
-35.2475
-35.3161
-35.1563
-34.7465
-34.0587
-33.0626
-31.7377
-30.0623
-27.9024
-25.4697
-22.7663
-19.6466
-15.9507
-12.0693
-6.99372
-3.50083
1.79684
8.72909
14.53
21.0985
27.9848
35.2141
42.8148
50.8507
59.3022
68.0339
77.0007
86.1505
95.4486
104.929
114.509
124.184
133.974
143.866
153.838
163.858
173.794
183.49
192.918
202.221
211.364
219.964
228.177
236.28
243.022
248.956
254.462
258.964
260.071
262.695
260.71
253.932
248.435
243.734
229.158
213.111
207.421
186.903
166.151
146.963
115.106
90.7867
71.8147
57.2687
45.9805
36.7257
28.9982
23.3212
19.1547
15.2787
12.1753
9.77019
8.0601
6.82276
5.28832
4.21695
3.70844
3.11913
2.03239
1.62786
1.22469
0.611089
0.615657
0.52967
0.314343
-0.100669
-0.272207
-0.530434
-15.5846
-13.3916
-12.4223
-11.8157
-11.4423
-11.2056
-11.052
-10.9516
-10.8879
-10.8522
-10.8905
-10.9982
-11.174
-11.4183
-11.7285
-12.1484
-12.618
-13.0553
-13.6382
-14.2893
-14.9788
-15.7111
-16.5376
-17.4525
-18.457
-19.5259
-20.6652
-21.8616
-23.124
-24.4474
-25.8307
-27.2742
-28.7826
-30.3648
-32.0792
-34.0836
-35.6303
-37.0177
-38.3215
-39.5448
-40.5785
-41.3576
-41.706
-42.6777
-43.8039
-45.0231
-46.1689
-47.0672
-47.6563
-47.8741
-47.6641
-46.9948
-45.8619
-44.2884
-42.3207
-40.0203
-37.4623
-34.7113
-31.8405
-28.9733
-26.1578
-23.4126
-20.7981
-18.383
-16.1678
-14.2076
-12.5352
-11.1466
-10.0651
-9.13725
-8.4261
-7.90268
-7.31286
-7.13422
-7.21741
-7.54544
-8.00775
-8.59815
-9.27361
-9.87452
-10.6266
-11.5128
-12.5176
-13.6129
-14.8798
-16.0301
-17.0807
-18.0531
-18.8771
-19.7148
-20.4597
-21.0232
-21.3701
-21.4915
-21.3706
-20.99
-20.3238
-19.3234
-17.9688
-16.2829
-14.1944
-11.5811
-8.92124
-5.7947
-1.31412
1.42703
5.89632
11.7923
16.8741
22.8016
29.0643
35.7159
42.708
50.0264
57.6795
65.6866
74.032
82.6765
91.5795
100.698
110.006
119.472
129.067
138.766
148.548
158.394
168.26
178.177
188.032
197.446
206.41
215.311
223.922
231.487
238.313
246.213
250.004
253.409
256.902
254.273
251.309
250.577
239.98
223
223.352
203.824
184.361
160.07
122.4
93.8116
72.8679
56.2911
42.6995
32.7502
24.3438
18.686
12.9232
9.62021
6.85605
4.64615
2.97251
0.467679
0.181081
-0.143364
-0.638655
-1.19202
-2.14767
-3.03658
-3.60216
-4.21477
-4.85903
-5.22551
-5.63108
-5.85054
-6.08041
-6.18652
-5.69757
-5.67531
-5.53216
-5.16265
-15.2694
-12.7971
-11.6236
-11.0645
-10.7917
-10.6743
-10.6531
-10.6656
-10.704
-10.7851
-10.9211
-11.1291
-11.3489
-11.6577
-12.0112
-12.4033
-12.8313
-13.2685
-13.7317
-14.1651
-14.5965
-15.0714
-15.6094
-16.23
-16.9354
-17.7025
-18.5295
-19.3943
-20.2667
-21.1035
-21.9214
-22.743
-23.6578
-24.5318
-25.3955
-25.8535
-26.7393
-27.8102
-28.8996
-29.9521
-30.977
-32.0185
-33.1815
-34.5712
-36.0567
-37.6338
-39.2147
-40.6604
-41.9185
-42.8892
-43.4766
-43.6264
-43.3233
-42.5764
-41.408
-39.8443
-37.9546
-35.7752
-33.2718
-30.7849
-28.3423
-25.8028
-23.1972
-20.6489
-18.246
-16.016
-14.0127
-12.2065
-10.6441
-9.29119
-8.14636
-7.20331
-6.45131
-5.89813
-5.58455
-5.4449
-5.59208
-5.84285
-6.14398
-5.86699
-6.03715
-6.39901
-6.92455
-7.57955
-8.29062
-9.09455
-9.91984
-10.7137
-11.4257
-12.077
-12.6648
-13.1504
-13.4784
-13.6074
-13.4867
-13.1221
-12.4882
-11.4933
-10.0826
-8.52057
-6.56498
-3.38242
-1.57033
1.42483
5.92046
9.74264
14.1498
19.1518
24.5414
30.3905
36.6475
43.2928
50.3013
57.6535
65.3426
73.3692
81.7184
90.3778
99.3192
108.497
117.898
127.483
137.219
147.057
156.972
166.909
176.755
186.494
196.186
204.604
212.709
221.263
229.011
234.464
239.715
243.809
242.206
242.709
241.549
227.145
227.998
214.601
193.17
172.457
129.619
96.9213
72.8809
54.4271
39.6633
28.994
19.8665
14.131
9.15641
5.92239
2.80263
-0.48803
-0.886328
-1.56829
-2.49354
-4.01556
-5.42671
-6.60073
-8.42005
-10.3523
-12.4091
-14.1154
-15.6046
-17.0101
-18.1269
-19.0439
-19.7912
-19.9801
-20.1949
-19.8126
-18.8749
-18.6528
-16.3282
-15.8491
-12.0043
-10.8538
-14.6907
-11.5659
-10.1869
-9.91067
-9.95029
-10.0329
-10.245
-10.5421
-10.8689
-11.22
-11.7186
-12.1831
-12.5495
-12.8149
-12.8506
-12.5354
-11.9618
-11.1701
-10.1795
-9.08533
-8.04155
-7.23509
-6.8299
-6.93274
-7.56559
-8.59264
-9.82013
-11.0512
-12.0214
-12.5089
-12.5727
-12.2845
-11.6431
-11.3937
-11.9081
-13.2124
-15.1933
-17.2953
-19.141
-20.3357
-20.9472
-21.493
-22.5167
-24.2763
-26.4554
-28.608
-30.3403
-31.8566
-33.4459
-35.0228
-36.331
-37.2117
-37.6581
-37.7279
-37.4444
-36.7787
-35.7802
-34.5064
-32.6248
-30.9009
-29.2658
-27.3752
-25.2633
-23.0825
-20.9838
-18.983
-17.1351
-15.4545
-13.901
-12.446
-11.2852
-10.2591
-9.39099
-8.71827
-8.06731
-7.6358
-7.46275
-7.44879
-7.54354
-7.52994
-7.60268
-7.77789
-8.05657
-8.43471
-8.89278
-9.44322
-10.0047
-10.569
-10.4636
-10.6564
-10.9048
-11.1456
-11.3008
-11.3093
-11.0527
-10.6629
-10.0382
-9.03435
-7.34434
-6.31366
-4.50679
-1.61376
0.956894
3.92238
7.56354
11.5308
15.9295
20.7961
26.1188
31.8944
38.1091
44.7496
51.7964
59.2319
67.0434
75.2226
83.7426
92.5967
101.752
111.17
120.822
130.675
140.679
150.722
160.892
170.899
180.719
189.969
198.92
207.559
216.138
223.446
228.237
231.252
232.108
229.91
221.276
217.837
202.046
187.175
144.944
103.108
74.7352
53.5763
38.0917
26.3264
17.4119
11.536
7.19973
3.53063
-0.645075
-1.93535
-3.01771
-4.16326
-5.90259
-7.45005
-10.2285
-13.3687
-16.322
-19.4223
-22.5294
-25.5856
-28.7535
-31.6437
-34.1214
-36.4496
-38.378
-40.0101
-40.9774
-41.3533
-41.2676
-40.2338
-38.8327
-36.7242
-34.0874
-32.1844
-27.1201
-26.099
-18.9012
-16.2547
-5.73795
-1.28551
2.43597
7.14008
13.9498
17.8576
18.9994
16.2984
10.9142
5.1408
-3.259
-11.531
-18.5705
-23.833
-26.9847
-26.9791
-24.6073
-20.5711
-15.4236
-9.63884
-3.74043
1.71285
6.14633
9.0124
9.89701
8.58624
5.07496
0.0640822
-5.48206
-9.97551
-12.026
-12.694
-10.1288
-6.13206
-2.90412
-2.01395
-4.29165
-8.13917
-12.6971
-15.9021
-16.6506
-15.8792
-15.065
-15.5323
-17.8788
-21.2883
-23.6715
-24.845
-25.9947
-27.6609
-29.4829
-30.9439
-31.8906
-32.4789
-32.8252
-32.8929
-32.6448
-32.2231
-31.2276
-30.1395
-29.0888
-27.8712
-26.4337
-24.8602
-23.2525
-21.686
-20.1875
-19.0195
-17.6046
-15.92
-15.0416
-14.1401
-13.3794
-12.7022
-12.1812
-11.783
-11.5769
-11.4935
-11.531
-11.537
-11.6215
-11.7704
-11.9806
-12.2599
-12.6013
-13.0116
-13.4368
-13.8765
-13.8538
-13.8833
-13.9064
-13.9158
-13.8345
-13.6057
-13.0007
-12.5672
-11.7596
-10.4549
-8.9001
-7.27717
-5.29468
-2.71204
0.160545
3.37712
7.0563
11.1622
15.7174
20.7383
26.2271
32.1835
38.6034
45.4781
52.7905
60.5236
68.6818
77.2431
86.1426
95.3805
104.909
114.79
124.872
135.189
145.536
155.806
166.319
176.234
185.71
194.126
201.635
208.39
214.161
217.792
215.732
213.071
203.775
192.082
177.78
139.764
96.6832
69.378
47.8169
31.2379
20.9408
12.6754
7.47592
4.21541
-0.00886114
-2.28207
-2.73345
-4.50569
-6.57998
-8.17517
-11.5615
-15.0206
-18.6571
-22.7365
-27.2775
-31.7455
-36.4784
-41.2745
-45.6807
-49.7701
-53.2312
-55.8974
-57.9439
-58.9698
-59.0297
-58.4832
-56.909
-54.7338
-51.9081
-48.417
-44.8592
-40.5243
-36.3961
-32.4113
-26.7778
-24.5758
-17.0284
-14.7533
-29.1768
-43.0922
-13.0162
37.2896
96.0044
132.486
156.721
162.797
155.818
136.783
108.724
75.9995
42.6547
12.606
-12.3188
-30.5111
-42.5782
-48.5797
-48.9963
-44.5996
-36.3052
-25.0875
-12.1011
1.17979
12.9456
21.1831
24.1671
21.2235
12.769
-0.238774
-6.81849
-17.745
-19.3546
-14.6111
-6.53562
1.13767
3.6666
2.06968
-3.52784
-11.1067
-14.8663
-15.252
-13.1153
-10.7026
-11.0351
-15.0204
-18.9737
-20.4822
-20.9639
-22.1317
-24.089
-25.9915
-27.2979
-28.1466
-28.7866
-29.4588
-29.6038
-29.6765
-29.4905
-28.9515
-28.3768
-27.6968
-26.8327
-25.7992
-24.7146
-23.624
-22.5725
-21.5875
-20.5734
-19.5145
-18.7386
-18.0113
-17.5346
-16.9295
-16.5843
-16.3279
-16.2299
-16.2289
-16.3366
-16.4726
-16.6721
-16.913
-17.1829
-17.4875
-17.8193
-18.1775
-18.5333
-18.8483
-18.8846
-18.885
-18.7813
-18.6677
-18.4064
-17.9321
-17.2111
-16.3819
-15.3286
-13.9173
-12.1901
-10.2372
-7.95972
-5.23387
-2.11727
1.38598
5.32201
9.70325
14.5501
19.877
25.6843
31.9767
38.7553
46.0071
53.711
61.8525
70.443
79.4426
88.7854
98.4615
108.406
118.668
129.02
139.733
149.915
160.177
169.411
178.173
186.563
192.738
197.417
199.495
197.85
194.681
181.1
166.873
146.641
103.824
73.7729
50.7055
32.7043
20.7438
12.9514
6.57127
3.63161
-0.00322337
-2.5907
-2.98647
-4.90617
-6.58786
-9.18191
-12.2084
-15.3952
-19.4289
-24.0806
-29.356
-35.3828
-41.7612
-48.069
-54.0933
-59.3402
-63.7811
-67.038
-69.2908
-70.3562
-70.2439
-69.4662
-67.5044
-64.9133
-61.593
-57.6053
-53.2914
-48.6747
-44.0711
-39.6373
-34.784
-30.5093
-26.3295
-21.6626
-19.1171
-14.0157
-10.456
-614.165
-582.758
-519.732
-364.472
-192.711
-57.4095
54.6388
140.843
199.127
230.506
234.832
216.469
182.155
138.986
93.6162
51.1079
13.7724
-16.787
-39.8231
-54.9734
-62.1191
-61.2809
-52.7325
-37.4008
-17.3776
3.85142
21.9087
32.7491
33.2549
23.7247
8.30846
-9.63992
-21.4501
-23.7805
-17.2475
-5.62039
3.53417
6.62962
5.95956
-4.16033
-10.81
-14.9043
-14.4532
-10.0343
-6.77305
-9.40388
-14.7657
-17.4049
-17.5871
-17.9938
-19.7106
-21.8939
-23.534
-24.5657
-25.3493
-26.3653
-26.8524
-27.3134
-27.6689
-27.6253
-27.4391
-27.2232
-26.8632
-26.3055
-25.653
-24.9974
-24.3542
-23.6916
-23.0325
-22.3855
-21.8567
-21.3771
-21.0699
-20.7953
-20.6227
-20.548
-20.6167
-20.7576
-21.0045
-21.2894
-21.6318
-22.0097
-22.3996
-22.8007
-23.2006
-23.5866
-23.9887
-24.219
-24.2951
-24.327
-24.2469
-24.0102
-23.6224
-23.0184
-22.1509
-21.0744
-19.7695
-18.1556
-16.22
-13.9923
-11.4249
-8.44953
-5.06213
-1.2584
2.98353
7.68377
12.8602
18.5311
24.6865
31.3405
38.4839
46.0998
54.1569
62.6774
71.6531
81.017
90.6275
100.544
110.668
120.931
131.161
140.858
150.487
159.895
166.848
173.428
178.816
180.042
179.614
173.94
161.564
146.287
123.491
87.773
62.1857
41.8238
26.488
16.6114
9.50127
4.29606
1.98446
-1.57132
-2.72235
-4.04493
-5.89399
-7.91624
-10.2643
-13.0365
-16.5562
-20.6593
-26.0711
-32.4253
-39.6149
-47.195
-54.7724
-61.8339
-67.7321
-72.456
-75.5656
-77.313
-77.7273
-76.9824
-75.3456
-72.8426
-69.5247
-65.4758
-61.0065
-56.0648
-50.8962
-45.7169
-40.6318
-35.8481
-31.4623
-27.3548
-23.868
-20.5817
-17.3343
-14.958
-12.0515
-8.61964
-1936.74
-1670.62
-1395.34
-1119.22
-849.414
-593.56
-363.452
-169.456
-11.9877
107
186.068
229.813
242.791
230.961
201.441
160.742
114.487
67.0151
21.7448
-18.3106
-50.4338
-72.2886
-81.7922
-77.5738
-60.2092
-33.0951
-2.21871
25.194
41.7193
43.3808
31.1153
9.23598
-12.7366
-26.6618
-28.0819
-18.1033
-4.60528
8.23028
12.4098
3.36649
-2.92485
-12.0669
-16.4212
-12.1707
-4.97167
-4.32582
-10.227
-14.4925
-14.943
-14.5831
-15.7629
-18.0519
-20.0263
-21.2495
-22.1408
-23.2039
-24.3897
-24.914
-25.6225
-26.1819
-26.3024
-26.5484
-26.6775
-26.5541
-26.3012
-26.0851
-25.8367
-25.5524
-25.2614
-24.9732
-24.7243
-24.5274
-24.4511
-24.4712
-24.5272
-24.6726
-24.943
-25.2691
-25.6711
-26.1267
-26.6272
-27.1611
-27.6952
-28.2248
-28.7313
-29.1958
-29.6179
-29.9082
-30.0437
-30.0827
-29.9888
-29.7274
-29.2619
-28.5604
-27.5722
-26.31
-24.7812
-22.9471
-20.7856
-18.2947
-15.4418
-12.1867
-8.5016
-4.38453
0.184704
5.22146
10.737
16.7603
23.2557
30.2661
37.7508
45.6835
54.0362
62.848
72.094
81.6386
91.2216
101.133
110.684
120.695
129.959
138.077
146.57
153.522
157.148
160.217
159.346
152.9
145.355
128.99
105.458
75.077
53.2164
36.3233
23.089
14.6139
7.79761
3.40991
1.20688
-1.88479
-2.9925
-4.4556
-5.69368
-7.81924
-10.0433
-12.7218
-16.0187
-20.2092
-25.7047
-32.396
-40.2518
-48.7797
-57.5712
-65.7384
-72.7295
-78.1023
-81.4828
-83.2519
-83.3241
-82.1738
-80.2662
-77.0949
-73.3454
-69.1267
-63.9517
-58.5125
-52.878
-47.119
-41.5019
-36.3062
-31.5844
-27.4017
-23.8938
-20.9939
-18.7269
-16.7169
-14.8373
-13.2327
-11.4122
-9.14876
-1083.4
-1141.06
-1201.42
-1158.49
-1065.93
-932.419
-758.859
-583.029
-399.66
-223.274
-76.6024
49.016
148.781
218.13
255.719
264.015
246.763
208.905
155.842
93.4171
29.1293
-30.868
-79.1313
-108.249
-113.637
-95.6503
-59.7137
-15.1101
26.0551
52.7701
58.233
42.7445
14.6094
-14.5036
-32.7429
-34.4887
-22.7625
-2.26078
13.6881
14.0498
6.84204
-1.79589
-16.9366
-16.9883
-6.61408
0.0108789
-4.52882
-10.8044
-12.4461
-11.4839
-11.7381
-13.854
-16.1766
-17.6691
-18.6563
-19.7504
-21.2156
-22.2996
-23.5377
-24.0494
-24.7144
-25.5594
-26.2218
-26.5073
-26.6787
-26.9916
-27.1614
-27.3415
-27.4781
-27.57
-27.6483
-27.7888
-28.0161
-28.3698
-28.6986
-29.1198
-29.6434
-30.1886
-30.7887
-31.4489
-32.132
-32.8469
-33.5463
-34.2306
-34.8634
-35.4384
-35.9346
-36.2941
-36.4878
-36.5484
-36.459
-36.1805
-35.6597
-34.8891
-33.794
-32.3674
-30.6244
-28.5538
-26.1415
-23.3726
-20.2196
-16.6538
-12.6563
-8.21024
-3.29702
2.0943
7.95707
14.3428
21.1633
28.5097
36.2648
44.4149
52.9368
61.9118
70.9609
80.4189
89.518
98.8946
107.303
116.443
123.003
129.211
134.892
136.588
133.905
132.686
120.519
106.739
79.951
59.7821
43.0838
29.7586
19.0735
12.315
6.10645
3.03207
0.365414
-2.28825
-3.17586
-4.24074
-5.5513
-7.67768
-9.6181
-12.089
-15.0224
-19.0083
-24.3197
-31.0256
-39.187
-48.4059
-58.2726
-67.6687
-76.0164
-82.3132
-86.442
-88.3813
-88.3403
-86.9599
-84.4171
-80.7643
-76.863
-71.7993
-66.3614
-60.7979
-54.4583
-48.0561
-41.9126
-36.0144
-30.7264
-26.2777
-22.5901
-19.6577
-17.6857
-16.47
-15.7752
-15.2304
-14.6312
-13.9265
-12.8424
-11.2912
129.647
-95.1896
-322.352
-518.452
-668.388
-807.199
-823.347
-885.021
-818.821
-678.47
-627.578
-417.697
-243.579
-62.4447
99.1392
229.081
318.672
362.201
357.578
307.673
224.354
115.2
5.17608
-86.6751
-145.427
-164.694
-146.129
-97.8726
-34.403
26.8579
68.8495
80.6386
62.7257
24.5863
-15.9996
-42.9555
-47.0277
-31.8896
3.66122
15.9067
21.8198
14.3264
-9.55971
-21.2472
-12.587
1.57493
1.70071
-5.92947
-9.84268
-8.9213
-7.96308
-9.45353
-12.0225
-13.8791
-14.9739
-16.03
-17.6245
-19.1672
-20.6879
-21.7794
-22.8551
-23.9197
-25.3536
-25.8709
-26.5706
-27.5634
-28.0943
-28.8469
-29.4071
-29.9006
-30.3754
-30.8909
-31.4689
-32.2145
-32.839
-33.585
-34.3933
-35.1723
-36.0031
-36.9029
-37.7832
-38.6952
-39.567
-40.4
-41.2016
-41.924
-42.534
-42.9849
-43.2455
-43.3373
-43.2603
-42.9724
-42.4593
-41.6484
-40.4524
-38.8689
-36.9237
-34.6207
-31.9573
-28.916
-25.4727
-21.604
-17.2948
-12.5304
-7.29977
-1.58885
4.56294
11.2518
18.2605
25.824
33.6161
41.7609
50.1837
58.9241
67.2837
76.0734
83.6633
91.6059
98.5971
104.658
106.679
108.17
109.51
101.654
94.2221
73.9585
57.5684
44.273
31.9482
22.2469
14.5772
9.62576
4.65253
2.18839
-0.835167
-1.94209
-2.85768
-4.44397
-5.60675
-7.43039
-9.09829
-11.3224
-13.942
-17.5516
-22.4672
-28.8856
-36.9519
-46.4748
-57.1247
-67.736
-77.561
-85.1809
-90.4509
-92.8622
-93.01
-91.4134
-88.2555
-84.3401
-79.6852
-74.1984
-68.7008
-62.2602
-55.8643
-49.2263
-42.0589
-35.2382
-29.5694
-24.2133
-20.0876
-17.1096
-15.0921
-13.9338
-14.0432
-14.8157
-15.8168
-16.6734
-17.1411
-17.1704
-16.5424
-15.2984
208.658
150.121
97.0098
35.731
-34.925
-125.093
-198.73
-287.141
-361.178
-398.969
-419.28
-412.344
-365.346
-282.61
-174.418
-49.2617
78.6173
192.995
276.798
320.18
313.789
265.603
178.039
66.906
-47.4766
-143.733
-201.091
-205.378
-159.334
-77.539
15.532
88.9624
120.388
102.012
46.9146
-18.7948
-65.1626
-68.6225
-36.8491
5.0654
35.0248
33.494
7.05056
-20.7158
-22.494
-1.87416
6.95093
0.179174
-6.76474
-6.98827
-4.7482
-5.00921
-7.56828
-9.8923
-11.13
-12.0446
-13.5867
-15.445
-17.2948
-18.8122
-20.2859
-21.754
-23.4142
-24.7567
-25.8755
-27.2371
-28.1852
-29.7997
-30.4389
-31.4236
-32.6056
-33.4238
-34.3531
-35.5375
-36.5058
-37.6007
-38.6408
-39.6805
-40.7772
-41.9538
-43.0281
-44.1448
-45.1837
-46.1404
-47.0846
-47.9495
-48.6684
-49.2023
-49.5207
-49.6399
-49.5685
-49.2703
-48.6946
-47.7618
-46.4432
-44.7325
-42.645
-40.178
-37.3348
-34.0941
-30.4385
-26.3426
-21.804
-16.8094
-11.37
-5.47385
0.802115
7.57918
14.4889
21.9892
29.2846
37.0402
44.8892
52.4554
59.6359
66.2391
70.6531
77.059
80.7967
79.2501
77.1011
70.5939
57.4571
46.7577
38.2926
29.0444
21.4428
15.0685
10.2305
6.54861
3.01258
1.25838
-1.3095
-2.25052
-3.47927
-4.30203
-5.62206
-7.12447
-8.58791
-10.5468
-12.8614
-16.0252
-20.4228
-26.3609
-33.9825
-43.3991
-54.3545
-65.9284
-77.167
-86.4579
-93.2035
-96.63
-97.3022
-95.6936
-92.2158
-87.8474
-82.2962
-76.658
-70.4637
-63.74
-57.3918
-49.6612
-42.5024
-35.358
-28.1649
-21.2386
-16.074
-12.7251
-10.9554
-10.2304
-10.589
-12.3315
-14.115
-16.7665
-19.2826
-21.2585
-22.509
-22.9386
-22.4048
-21.1188
35.0611
26.6958
26.2946
23.4037
15.6557
5.83612
-4.14149
-17.8738
-32.7115
-45.7998
-56.5572
-66.1118
-70.4855
-68.4384
-59.0278
-41.4911
-17.9268
10.9394
40.848
66.1614
84.3463
89.7991
79.4192
58.6533
26.5309
-14.1795
-49.0537
-73.1603
-83.6376
-68.1335
-29.1869
12.7494
45.1698
59.1516
49.6811
18.6215
-19.0416
-40.7083
-37.9154
-13.7868
14.6452
26.3579
17.5271
-5.81344
-19.4317
-7.40113
7.63839
5.48787
-3.37116
-5.71839
-2.41056
-0.767375
-2.85271
-5.69048
-7.09809
-7.67241
-8.87226
-10.7751
-12.9063
-14.7094
-16.4095
-18.2857
-20.0103
-21.7448
-23.344
-25.0707
-26.5843
-28.3076
-29.8923
-31.3637
-32.7114
-34.122
-35.4161
-36.9768
-38.6745
-39.7563
-40.7579
-42.3135
-43.6989
-45.1604
-46.3808
-47.6814
-48.8836
-49.8582
-50.9215
-51.921
-52.7003
-53.2647
-53.5921
-53.7076
-53.6207
-53.2858
-52.6161
-51.5221
-50.0755
-48.2714
-46.1113
-43.5704
-40.6529
-37.3269
-33.5924
-29.412
-24.8258
-19.8088
-14.4128
-8.65377
-2.59698
3.73668
10.078
16.7902
22.6743
29.6977
35.9831
40.7579
45.3848
46.7599
49.2797
45.0073
41.4689
36.6925
32.2907
27.1697
21.4198
16.6395
12.5727
9.00828
6.32964
3.49807
1.73884
0.315587
-1.82757
-2.52222
-3.53379
-4.35025
-5.61247
-6.82429
-8.11917
-9.8072
-11.851
-14.5762
-18.3922
-23.7376
-30.6786
-39.6457
-50.4083
-62.5112
-74.8612
-85.8874
-94.3883
-99.4132
-100.977
-99.7941
-96.2379
-91.4338
-85.2774
-79.1106
-72.1109
-65.4339
-58.5316
-50.3505
-43.639
-35.4302
-26.0052
-18.7224
-12.6557
-7.50364
-5.3075
-5.3511
-5.95146
-6.95354
-9.2875
-14.6688
-19.5766
-22.6752
-26.2915
-28.9006
-30.4067
-30.7984
-29.985
-28.3385
5.19059
3.00546
4.40977
8.32331
4.11658
2.7436
3.20811
1.55506
-0.814557
-2.9045
-4.67958
-6.40167
-7.78521
-8.62439
-8.52317
-7.52661
-5.7599
-2.65834
1.1912
5.32225
9.55269
12.613
13.4059
12.6347
9.47018
3.58099
-3.00345
-9.36667
-14.8046
-16.1007
-11.4779
-4.03238
3.72753
10.2845
12.9796
9.69129
1.70651
-6.18623
-10.1953
-7.95243
-0.396309
5.95957
7.46088
2.06631
-5.54713
-4.43383
1.9479
2.98713
-0.550705
-2.48925
-1.10312
0.333845
-0.253993
-1.87057
-2.805
-3.06552
-3.53849
-4.59872
-6.09109
-7.40462
-8.84472
-10.1805
-12.129
-14.1018
-16.0432
-18.0252
-19.9898
-21.9844
-23.9871
-25.8971
-27.6994
-29.5469
-31.1852
-33.1085
-34.6769
-36.3685
-38.0073
-39.5647
-41.0375
-42.6602
-43.9455
-45.3666
-46.7633
-47.4839
-48.7483
-49.8507
-50.5702
-51.1077
-51.3678
-51.4286
-51.2992
-50.9067
-50.184
-49.0548
-47.574
-45.7664
-43.6535
-41.1882
-38.3748
-35.1706
-31.6059
-27.6392
-23.3711
-18.7802
-13.9676
-9.02895
-3.91652
0.934093
5.91228
10.1011
14.5351
16.8868
18.7926
19.7963
20.4378
19.7118
19.0661
17.1765
14.9833
12.5592
10.4154
8.22529
6.11266
4.53023
2.74321
1.39734
0.467854
-1.08203
-1.73335
-2.55209
-3.59039
-4.22745
-5.48351
-6.55538
-7.78197
-9.14868
-10.9456
-13.243
-16.5414
-21.2861
-27.3914
-35.6448
-45.7918
-57.8963
-70.8883
-83.4135
-93.8647
-100.832
-103.901
-103.476
-100.368
-95.243
-88.576
-81.6594
-74.0609
-66.964
-59.4395
-51.5557
-43.9833
-35.1339
-25.1519
-17.6659
-8.93674
-6.00117
-2.49922
1.56889
1.44811
-1.01953
-4.20782
-6.40707
-11.5843
-20.0965
-26.8977
-32.2449
-36.0465
-38.6955
-39.9607
-39.8995
-38.4915
-36.2407
0.6022
0.890088
1.33106
1.53498
1.45004
1.51442
1.53006
1.35231
0.88516
0.234811
0.000939329
-0.222174
-1.12285
-1.55647
-1.78979
-1.84772
-1.71114
-1.2365
-0.489993
0.521229
1.80211
2.95786
3.71981
3.57539
3.12779
2.21264
0.522014
-2.06178
-3.5775
-4.46771
-3.85392
-2.28901
-0.378039
1.90481
3.22872
3.11428
1.95515
-0.0693957
-2.16412
-2.74254
-1.45887
0.486881
1.84078
1.40011
-0.678498
-1.31607
0.0857933
0.765089
0.0492478
-0.650701
-0.415273
0.0833111
0.0836388
-0.361792
-0.705759
-0.802126
-0.895324
-1.14606
-1.63077
-2.08401
-2.62724
-3.18283
-3.92578
-4.75143
-5.66628
-6.64854
-7.74865
-8.87685
-10.1145
-11.2974
-12.5612
-13.8043
-15.0223
-16.4019
-17.6258
-18.8958
-20.1769
-21.4124
-22.5622
-23.7971
-24.7902
-25.8914
-26.8816
-27.6447
-28.428
-29.2475
-29.6175
-30.1428
-30.3007
-30.3253
-30.2217
-29.9092
-29.3259
-28.4642
-27.3884
-26.1467
-24.7551
-23.1698
-21.3846
-19.3755
-17.1785
-14.7916
-12.3046
-9.73526
-7.16467
-4.67071
-2.22892
-0.0860991
1.95281
3.54948
4.96859
5.87388
6.35192
6.46665
6.34636
5.87013
5.36935
4.6327
3.79006
2.99205
2.21587
1.28818
0.536812
-0.0410553
-0.981924
-1.67263
-2.06898
-2.99997
-3.37008
-3.96838
-5.09962
-6.38294
-7.56631
-8.61973
-10.2751
-12.1173
-14.9581
-19.0468
-24.384
-31.8478
-41.036
-52.6317
-65.6459
-79.1852
-91.4738
-100.558
-105.794
-106.568
-104.378
-99.0529
-92.4157
-84.6394
-76.3385
-68.4867
-60.3408
-53.2776
-44.7217
-35.1031
-24.8221
-17.0919
-7.7659
-4.49691
1.73749
6.75918
9.36189
9.28825
6.01715
-0.418843
-5.43751
-10.2799
-21.2411
-30.3069
-37.4561
-44.0693
-47.2626
-49.3659
-49.924
-49.0787
-46.8817
-43.893
0.0491814
0.234221
0.409627
0.551402
0.658897
0.740818
0.776601
0.753502
0.658906
0.45429
0.262685
0.0596316
-0.186486
-0.393518
-0.536123
-0.593559
-0.550352
-0.38034
-0.0919149
0.303872
0.724677
1.10547
1.2902
1.27078
1.0956
0.73822
-0.0490504
-0.991496
-1.29925
-1.66796
-1.72716
-1.05271
-0.20113
0.596028
1.56174
1.30758
1.10475
0.586889
-0.669725
-1.28974
-1.03572
-0.208674
0.542657
0.627713
0.102683
-0.322031
-0.134713
0.128076
0.0288467
-0.175206
-0.155686
-0.0136929
0.0302568
-0.0718625
-0.18557
-0.22708
-0.245741
-0.282782
-0.391561
-0.502978
-0.64332
-0.795813
-0.989968
-1.20149
-1.44843
-1.72416
-2.05883
-2.40783
-2.81373
-3.21027
-3.65707
-4.12131
-4.59257
-5.1262
-5.62833
-6.15861
-6.69914
-7.2402
-7.76779
-8.32054
-8.78969
-9.29856
-9.77042
-10.1858
-10.565
-10.9361
-11.1911
-11.4405
-11.5372
-11.6203
-11.6323
-11.544
-11.3199
-10.9688
-10.5337
-10.0524
-9.52909
-8.94068
-8.27508
-7.5212
-6.69409
-5.80077
-4.88218
-3.95366
-3.04926
-2.19787
-1.39171
-0.718019
-0.096848
0.373889
0.728443
0.96584
1.06596
1.07206
0.942268
0.744201
0.526336
0.165852
-0.178597
-0.435287
-0.801089
-1.32211
-1.556
-1.95994
-2.60776
-3.1552
-3.409
-3.97622
-4.77971
-5.90768
-7.1767
-8.37308
-9.58002
-11.1544
-13.7533
-17.0931
-21.821
-28.3091
-36.5352
-47.3842
-59.7633
-73.6906
-87.2063
-98.3768
-106.13
-108.696
-107.904
-102.864
-96.5175
-87.8809
-79.0305
-70.4286
-61.4093
-54.0352
-45.1845
-34.5001
-24.3893
-16.8537
-8.30882
-4.46156
3.10453
12.2827
16.5136
18.5549
17.3876
12.8549
4.9279
-4.60803
-10.3395
-21.0295
-35.4502
-43.5794
-50.2419
-55.0108
-58.7949
-59.5356
-59.0497
-57.2602
-54.2366
-50.5017
-0.0158628
0.0673403
0.142307
0.20558
0.254949
0.288407
0.301686
0.287634
0.250296
0.182232
0.110388
0.0302761
-0.0546181
-0.13437
-0.192934
-0.183975
-0.119265
0.000543981
0.164481
0.364158
0.562232
0.70655
0.747765
0.665847
0.471334
0.166151
-0.264182
-0.6701
-0.910294
-1.02485
-0.887102
-0.5237
-0.0484285
0.508728
0.840277
0.814174
0.624065
0.261542
-0.309764
-0.653932
-0.622505
-0.252734
0.198465
0.261083
0.195073
0.0365192
-0.172889
-0.030367
-0.0153116
-0.0687096
-0.0631725
-0.0209775
0.00252022
-0.0228798
-0.0662618
-0.0873278
-0.0933581
-0.096086
-0.119521
-0.14992
-0.190832
-0.23565
-0.289776
-0.345046
-0.409294
-0.482672
-0.574732
-0.67337
-0.789905
-0.906123
-1.0384
-1.18325
-1.33192
-1.49697
-1.65571
-1.82585
-1.9991
-2.17544
-2.35253
-2.53555
-2.69843
-2.86747
-3.03572
-3.19053
-3.32794
-3.45849
-3.56673
-3.65893
-3.71068
-3.75583
-3.78763
-3.78413
-3.73069
-3.633
-3.51149
-3.38497
-3.25604
-3.1127
-2.94922
-2.75981
-2.54656
-2.31266
-2.07164
-1.82901
-1.59463
-1.38021
-1.18386
-1.02839
-0.881402
-0.796594
-0.750858
-0.734519
-0.753126
-0.813236
-0.936086
-1.04769
-1.17464
-1.44731
-1.5271
-1.72294
-2.04958
-2.37965
-2.73994
-2.95193
-3.40035
-3.85869
-4.61986
-5.54235
-6.54748
-7.89049
-9.13925
-10.4497
-12.5853
-15.4726
-19.8433
-25.2007
-32.6713
-42.2613
-53.7971
-67.6294
-81.5069
-94.5629
-104.492
-109.321
-110.601
-106.519
-100.483
-91.3505
-82.2589
-72.7109
-62.6928
-54.7693
-45.4209
-34.7184
-24.5697
-17.0925
-9.87143
-4.77303
3.7024
15.378
21.8516
26.6847
28.149
25.7579
19.4538
9.57631
-2.91844
-10.4552
-23.061
-39.6785
-49.504
-57.2046
-62.7318
-66.062
-67.5132
-68.0114
-66.6131
-63.9369
-60.1809
-55.815
-0.032657
-0.0225329
-0.0182661
-0.0206716
-0.0294079
-0.0439112
-0.0638638
-0.0893079
-0.110637
-0.10389
-0.0966612
-0.0965547
-0.094608
-0.0839158
-0.0529398
-0.00166383
0.0633128
0.139561
0.224436
0.364857
0.467427
0.513214
0.487066
0.380443
0.198533
-0.0418175
-0.310137
-0.539065
-0.671987
-0.679197
-0.53653
-0.273752
0.0514361
0.366663
0.543299
0.533365
0.379456
0.106477
-0.212554
-0.407321
-0.398753
-0.197701
0.0545311
0.155776
0.145747
0.0262674
-0.0729502
-0.0555929
-0.0352365
-0.0350793
-0.02476
-0.0167947
-0.00823732
-0.00963286
-0.0324671
-0.0468895
-0.0462242
-0.0423876
-0.0456716
-0.0557937
-0.0695039
-0.0844886
-0.103764
-0.120824
-0.139501
-0.161196
-0.190228
-0.223769
-0.262943
-0.303356
-0.346747
-0.394159
-0.444212
-0.498551
-0.551575
-0.608591
-0.666585
-0.726125
-0.785974
-0.847271
-0.904059
-0.960892
-1.02028
-1.07583
-1.12504
-1.17073
-1.21183
-1.24664
-1.27196
-1.29707
-1.32285
-1.33763
-1.33548
-1.31939
-1.29923
-1.28397
-1.27578
-1.2711
-1.26546
-1.25431
-1.23689
-1.21451
-1.19134
-1.16729
-1.14579
-1.1364
-1.13691
-1.14138
-1.15384
-1.2063
-1.2407
-1.29461
-1.36585
-1.49929
-1.55748
-1.65492
-1.82027
-2.0548
-2.22146
-2.48837
-2.65234
-2.97284
-3.27987
-3.82873
-4.44685
-5.15631
-6.11658
-7.20282
-8.49176
-9.96707
-11.5456
-14.3374
-17.9597
-22.7375
-29.5802
-37.652
-48.5256
-61.1473
-74.9741
-89.3574
-100.844
-108.793
-111.812
-109.589
-104.562
-95.2147
-85.9234
-75.0098
-64.4537
-55.5632
-45.5564
-34.6631
-24.535
-17.3221
-10.3412
-5.26515
3.69069
16.3
24.762
32.282
36.8264
37.5501
33.8229
25.6613
13.6179
-1.49356
-10.6374
-25.373
-44.0237
-54.9032
-63.3641
-69.3881
-73.1467
-74.8393
-74.9101
-73.5511
-71.2249
-67.9535
-63.7806
-59.0494
-0.0352978
-0.0560991
-0.0801445
-0.106878
-0.135375
-0.164469
-0.192549
-0.216772
-0.232431
-0.234963
-0.222448
-0.196711
-0.136091
-0.0913979
0.0155255
0.095775
0.175517
0.255208
0.321185
0.374982
0.39798
0.383524
0.327178
0.224163
0.0713128
-0.10836
-0.284773
-0.42046
-0.48608
-0.457557
-0.33351
-0.140158
0.0784427
0.266668
0.363786
0.345495
0.227661
0.0392753
-0.154756
-0.269499
-0.262431
-0.144107
0.00681078
0.0937307
0.100153
0.0268296
-0.0410035
-0.0517528
-0.0382327
-0.0246721
-0.0131959
-0.00747979
-0.00565241
-0.0101646
-0.0201467
-0.0251756
-0.0244073
-0.0211375
-0.0201258
-0.0254737
-0.0288322
-0.0344776
-0.0420721
-0.046508
-0.0516142
-0.0598169
-0.0725938
-0.0866632
-0.102119
-0.117018
-0.132276
-0.148501
-0.165921
-0.184405
-0.203236
-0.223312
-0.243697
-0.264815
-0.285835
-0.3069
-0.32869
-0.349471
-0.371192
-0.391771
-0.41074
-0.427575
-0.443229
-0.459344
-0.474826
-0.492077
-0.516439
-0.535162
-0.549501
-0.561957
-0.576562
-0.598538
-0.63017
-0.66971
-0.71346
-0.756716
-0.800218
-0.84301
-0.889442
-0.933343
-0.982753
-1.03253
-1.10038
-1.15965
-1.23735
-1.3396
-1.36324
-1.441
-1.54664
-1.71731
-1.85343
-2.00277
-2.23315
-2.39781
-2.61923
-2.85983
-3.20058
-3.68739
-4.15163
-4.87674
-5.69158
-6.60887
-7.8486
-9.24275
-11.0005
-13.2579
-16.3417
-21.0244
-26.7475
-34.1235
-43.9506
-54.9822
-68.834
-82.6809
-95.5658
-106.374
-111.275
-112.068
-107.805
-99.0565
-89.7209
-77.4894
-68.03
-56.4795
-45.1484
-34.2279
-24.2299
-17.2427
-10.6243
-5.73952
3.05067
15.9567
25.4718
34.9544
42.2605
46.3723
46.2139
41.1713
31.2543
17.1557
-0.0711475
-11.3589
-27.4044
-47.9785
-59.52
-68.3899
-74.6865
-78.5892
-80.4016
-80.5669
-79.4216
-77.2248
-74.1944
-70.4301
-65.954
-61.0156
-0.030828
-0.0610707
-0.0922823
-0.123743
-0.154342
-0.182722
-0.207154
-0.225367
-0.234641
-0.232485
-0.216255
-0.183609
-0.13124
-0.0597134
0.0452298
0.111861
0.216187
0.309079
0.375004
0.3785
0.358847
0.310722
0.233432
0.131443
0.0105406
-0.115012
-0.22576
-0.302303
-0.340925
-0.305973
-0.207219
-0.0688959
0.0771735
0.192055
0.243308
0.219231
0.131077
0.005327
-0.114347
-0.181948
-0.174821
-0.102493
-0.00924365
0.0532468
0.0634917
0.021267
-0.0261038
-0.0413475
-0.0335523
-0.0196679
-0.00864519
-0.0039367
-0.00407346
-0.00809568
-0.0131628
-0.0151963
-0.0137163
-0.0110749
-0.00968867
-0.0113044
-0.0132085
-0.0152243
-0.0182816
-0.0198622
-0.0212658
-0.0238723
-0.0281363
-0.0334971
-0.03666
-0.0405921
-0.0449054
-0.0495229
-0.0545388
-0.0597675
-0.0659012
-0.0716933
-0.0774595
-0.0835529
-0.0897933
-0.0955518
-0.104322
-0.1118
-0.117834
-0.124847
-0.131898
-0.138136
-0.143572
-0.153392
-0.165636
-0.180792
-0.207407
-0.2243
-0.243538
-0.270347
-0.299548
-0.336628
-0.383217
-0.437399
-0.494959
-0.552297
-0.614034
-0.673603
-0.744021
-0.811141
-0.893069
-0.959848
-1.01248
-1.09279
-1.19976
-1.32589
-1.41888
-1.54814
-1.70633
-1.86795
-2.03842
-2.22702
-2.4591
-2.72174
-3.06993
-3.4373
-3.90047
-4.5619
-5.22491
-6.21158
-7.28537
-8.54132
-10.31
-12.5483
-15.3792
-19.3292
-24.3582
-31.6315
-39.96
-50.2308
-62.6673
-75.6754
-90.0509
-101.339
-108.878
-113.059
-109.696
-103.39
-93.5291
-80.0175
-69.7645
-56.8989
-43.1671
-33.5453
-23.899
-17.0134
-10.4661
-5.89012
2.45414
15.2365
24.9259
35.3155
44.416
51.3469
54.8328
53.7761
47.5084
36.089
20.2688
1.42178
-12.476
-28.5021
-50.907
-62.9748
-72.0182
-78.3367
-82.1539
-83.9351
-84.0994
-83.0081
-80.9534
-78.1467
-74.7251
-70.7682
-66.2674
-61.4
-0.0168651
-0.0442195
-0.0712902
-0.0974068
-0.121566
-0.142622
-0.159269
-0.170056
-0.173472
-0.168108
-0.152658
-0.125868
-0.0868155
-0.0355149
0.0265696
0.0919556
0.160329
0.229143
0.261257
0.286011
0.271037
0.222967
0.146953
0.0511988
-0.0471131
-0.137071
-0.205602
-0.239488
-0.238671
-0.196618
-0.121269
-0.0289672
0.0662497
0.132318
0.153856
0.127891
0.0649628
-0.0145773
-0.0843757
-0.120767
-0.113407
-0.0698895
-0.0142756
0.0259099
0.0354601
0.0133451
-0.0167527
-0.0298213
-0.0260205
-0.0152932
-0.00607976
-0.00202466
-0.00237219
-0.00517736
-0.00783316
-0.00845321
-0.00710157
-0.00526699
-0.00426548
-0.0046829
-0.00557839
-0.0063386
-0.00702852
-0.00714235
-0.00702395
-0.00726352
-0.00799108
-0.00886314
-0.00974129
-0.00996848
-0.0099212
-0.0097609
-0.00951805
-0.00957516
-0.00749667
-0.00618153
-0.00508782
-0.00432009
-0.00400519
-0.00335406
-0.00407198
-0.00426562
-0.00498738
-0.0064044
-0.00849689
-0.011017
-0.0148746
-0.0219332
-0.0314529
-0.0446975
-0.0743115
-0.0866513
-0.107878
-0.145009
-0.181327
-0.225732
-0.277445
-0.33478
-0.392591
-0.45132
-0.518012
-0.583801
-0.638614
-0.711084
-0.802332
-0.889719
-0.980181
-1.08986
-1.20837
-1.34867
-1.48374
-1.65165
-1.8213
-2.04451
-2.27467
-2.54496
-2.87358
-3.20947
-3.7153
-4.23629
-4.93858
-5.83932
-6.8169
-8.18955
-9.74421
-11.9545
-14.7954
-18.2748
-23.3306
-29.3046
-36.9829
-47.0792
-57.8887
-70.3297
-83.4032
-95.7273
-106.269
-110.872
-111.573
-107.215
-95.7672
-85.1182
-71.8558
-56.9245
-42.8709
-30.749
-22.9269
-16.0609
-10.1433
-6.09242
2.56464
15.3143
24.2425
34.6379
44.4713
53.103
59.3357
61.9872
59.998
52.6391
39.9507
22.8279
2.82725
-12.8305
-29.1169
-52.4736
-64.9127
-74.0333
-80.2225
-83.8043
-85.3601
-85.3683
-84.2081
-82.1807
-79.5107
-76.3471
-72.7804
-68.8575
-64.5457
-59.9716
-0.0127441
-0.0261533
-0.0389982
-0.0508412
-0.0611079
-0.0691857
-0.0744309
-0.0761964
-0.0738761
-0.0669527
-0.0550354
-0.0379245
-0.0157672
0.0107289
0.0401565
0.0704124
0.0990884
0.122616
0.135347
0.134343
0.115155
0.0712994
0.0365512
-0.0307938
-0.0971275
-0.15492
-0.190182
-0.195841
-0.163058
-0.110406
-0.0463971
0.0141099
0.0624898
0.0894358
0.0895792
0.0634758
0.0205048
-0.0259065
-0.0620227
-0.077668
-0.069905
-0.0443765
-0.0134042
0.00954575
0.0163727
0.00625201
-0.0103357
-0.0189917
-0.0174075
-0.0103924
-0.0036735
-0.00031848
-0.000234822
-0.00180396
-0.00316923
-0.00331482
-0.00241508
-0.00133218
-0.000761532
-0.000871498
-0.0012632
-0.00152545
-0.00149736
-0.00109215
-0.000429564
0.000283831
0.000991003
0.00184606
0.00298282
0.00459976
0.00666083
0.00910172
0.0118807
0.014963
0.0179938
0.0215482
0.0254161
0.0288813
0.0338
0.0379739
0.0414891
0.0445064
0.0468295
0.0481353
0.0485483
0.0474781
0.0445268
0.0384444
0.0291638
0.0174569
-0.0129124
-0.0256609
-0.0486575
-0.089071
-0.129372
-0.178243
-0.230562
-0.28606
-0.330878
-0.385067
-0.45347
-0.523622
-0.596576
-0.678878
-0.776587
-0.881277
-0.997134
-1.12264
-1.26675
-1.43792
-1.61177
-1.84189
-2.07161
-2.36332
-2.66884
-3.0739
-3.54897
-4.08129
-4.85001
-5.6291
-6.73444
-8.03414
-9.66106
-11.9856
-14.6437
-18.4449
-22.867
-28.6957
-36.5376
-44.6789
-55.3118
-66.9604
-78.9492
-91.2365
-101.114
-108.868
-112.142
-106.887
-101.628
-87.6615
-71.2309
-52.871
-39.2217
-28.3798
-21.1924
-15.1553
-11.0901
-4.53202
6.47125
15.088
24.4843
34.3533
44.0268
53.1766
60.8519
66.0414
67.6125
64.5364
56.1862
42.5263
24.5024
3.8162
-12.5446
-29.203
-52.9892
-65.6315
-74.695
-80.4391
-83.7094
-84.9062
-84.5363
-83.1398
-81.0445
-78.3693
-75.3172
-71.9803
-68.4109
-64.6261
-60.5832
-56.3997
-0.0176313
-0.018434
-0.0186863
-0.0182515
-0.017012
-0.0148624
-0.0117112
-0.00749356
-0.00218491
0.00418399
0.0115091
0.0195856
0.0280725
0.0364628
0.0440758
0.0500637
0.0534114
0.0529456
0.0474645
0.0360982
0.0184512
-0.00502547
-0.0314588
-0.0592838
-0.0841236
-0.100446
-0.103261
-0.0945167
-0.0663745
-0.0270971
0.0144415
0.0474066
0.0617608
0.0596697
0.0446333
0.0209623
-0.00655368
-0.0303226
-0.0450288
-0.0479997
-0.0399241
-0.0248231
-0.008481
0.00319591
0.00688126
0.00248765
-0.00549819
-0.00996075
-0.00905853
-0.00486277
-0.00053797
0.0019081
0.0022821
0.00152378
0.000748668
0.000552072
0.000860874
0.00124949
0.00137825
0.0011978
0.000905433
0.000715185
0.000805969
0.00122266
0.00193891
0.00290723
0.0041248
0.00566104
0.00759376
0.00999921
0.0128986
0.0162667
0.0200902
0.0243617
0.0289705
0.0339563
0.0392136
0.044883
0.0502889
0.0558336
0.0609842
0.0655592
0.0693181
0.0719181
0.0736183
0.0730392
0.0704518
0.0643137
0.055646
0.0419731
0.0149947
0.000872305
-0.0248772
-0.0680348
-0.110396
-0.161907
-0.207719
-0.256493
-0.308234
-0.36699
-0.436178
-0.514865
-0.604264
-0.703835
-0.818729
-0.947763
-1.09509
-1.2586
-1.4431
-1.66664
-1.90509
-2.2478
-2.58135
-3.0304
-3.51923
-4.17445
-4.9604
-5.90465
-7.14615
-8.42361
-10.4211
-12.6992
-15.7733
-19.5794
-24.2282
-30.3104
-37.1396
-45.6028
-55.9589
-65.0812
-77.4215
-86.4419
-97.5575
-105.846
-108.237
-106.469
-99.9676
-86.8196
-63.5972
-45.5232
-32.7344
-24.478
-15.8783
-11.7713
-8.5234
-1.44523
10.4024
18.0389
26.5438
35.3631
44.3623
53.1254
61.0417
67.3456
71.0835
71.3102
67.1459
57.8396
43.6064
25.4717
4.68683
-11.9863
-28.7547
-52.6007
-65.0888
-73.9887
-79.7614
-82.7498
-83.691
-83.0458
-81.2205
-78.5128
-75.4822
-72.3956
-69.125
-65.7264
-62.2128
-58.5733
-54.7652
-50.9638
-0.0106317
-0.00846177
-0.00591655
-0.003017
0.000170293
0.00356191
0.00705907
0.0105462
0.0138901
0.0169401
0.0195283
0.0214694
0.0225625
0.0225957
0.0213549
0.0186378
0.0142747
0.00816301
0.000322266
-0.0090337
-0.0194226
-0.0300223
-0.0396279
-0.0467823
-0.0498907
-0.0475262
-0.038948
-0.0242454
-0.00351431
0.0101114
0.0296016
0.0382853
0.0363486
0.0248655
0.00804497
-0.00770998
-0.0201707
-0.0280917
-0.0302307
-0.0268314
-0.0193847
-0.0101734
-0.00210114
0.00288389
0.00404503
0.00183873
-0.00159825
-0.00323755
-0.00232146
0.000164609
0.00266693
0.00412466
0.00436385
0.00385297
0.0032025
0.00276561
0.00254208
0.00234478
0.0020318
0.00161224
0.00119681
0.000953397
0.000930377
0.00119567
0.0017829
0.00270943
0.00399536
0.00568208
0.00782384
0.0104534
0.013609
0.0172235
0.0213365
0.025939
0.0309843
0.0364211
0.0421543
0.0481334
0.0541096
0.0602773
0.0657821
0.0707751
0.0749431
0.0780618
0.0791677
0.0788846
0.0765428
0.0696306
0.0621889
0.0417232
0.0296682
0.00864604
-0.025986
-0.0645067
-0.110923
-0.165577
-0.230569
-0.274059
-0.333792
-0.406382
-0.493482
-0.594016
-0.711673
-0.843907
-1.00234
-1.18572
-1.39916
-1.64487
-1.92612
-2.2864
-2.68861
-3.27621
-3.86128
-4.68536
-5.60178
-6.75445
-8.29217
-10.0765
-12.4452
-14.9026
-18.5661
-22.5109
-27.9047
-33.7908
-40.9774
-49.4273
-57.9755
-67.5875
-77.1033
-84.6305
-94.2528
-96.7185
-104.63
-102.892
-97.0367
-74.7895
-52.851
-37.8812
-25.589
-14.0794
-12.3787
-9.02818
-3.44078
6.75219
14.5766
22.1998
30.1265
37.8937
45.7653
53.4886
60.7206
66.9588
71.5175
73.731
72.7166
67.5466
58.1134
44.4243
26.3355
5.69723
-10.9101
-27.63
-50.9993
-63.024
-71.5913
-77.1578
-80.1526
-81.0855
-80.4764
-78.7142
-76.1218
-72.9394
-69.6318
-66.3478
-63.0166
-59.6227
-56.1532
-52.6002
-48.9435
-45.4619
-0.000792044
-0.000309902
0.000222681
0.000783791
0.00134474
0.00187345
0.00233471
0.00269047
0.00290001
0.00292046
0.00270762
0.00221762
0.00140977
0.000250967
-0.00127785
-0.00317293
-0.00539635
-0.00786239
-0.0104228
-0.0128549
-0.0148604
-0.0160819
-0.0161435
-0.0147197
-0.011632
-0.00696394
-0.00115498
0.00495318
0.0101572
0.0127152
0.0132582
0.0101779
0.00346487
-0.00407456
-0.0104377
-0.0139869
-0.0151284
-0.0141742
-0.0113407
-0.00725624
-0.00283408
0.000946339
0.00343761
0.00430358
0.00372987
0.00221228
0.000927155
0.000857976
0.00191712
0.00343517
0.00470001
0.00528445
0.00512543
0.00448163
0.00374126
0.00313088
0.00261766
0.00205058
0.00138509
0.000730846
0.000198104
-0.000205175
-0.000436415
-0.000424955
-9.01986e-05
0.000626136
0.00172519
0.00322757
0.00519657
0.00764965
0.0106359
0.0137748
0.0175962
0.0219002
0.0266474
0.0317706
0.0371677
0.0427283
0.048349
0.0536035
0.059122
0.0638087
0.067717
0.0705239
0.0717478
0.0706936
0.0685175
0.0577967
0.0518229
0.0388221
0.0202779
-0.00438526
-0.0359036
-0.0751162
-0.123436
-0.184432
-0.253085
-0.340916
-0.442661
-0.560188
-0.7001
-0.861303
-1.05478
-1.27731
-1.55716
-1.88743
-2.27786
-2.75385
-3.30163
-4.04839
-4.85189
-6.00245
-7.26798
-8.97646
-11.0327
-13.4217
-16.5484
-19.6823
-23.778
-28.4307
-34.2297
-40.3986
-47.6215
-54.8943
-62.5903
-71.3011
-77.0686
-84.3292
-85.9136
-93.9603
-92.5187
-94.3663
-74.5339
-56.7645
-41.13
-26.072
-12.6707
-10.5829
-4.73414
0.714091
7.9634
14.885
21.9945
28.8316
35.4104
41.9133
48.3771
54.6722
60.6261
65.92
70.2087
73.1196
73.9481
72.0264
67.0364
58.1306
44.6374
27.4276
7.10124
-9.19977
-25.8541
-48.0912
-59.4147
-67.5862
-72.9766
-75.9944
-77.1228
-76.7877
-75.346
-73.0952
-70.2932
-67.1609
-63.9412
-60.6748
-57.3773
-54.0331
-50.6309
-47.1695
-43.6595
-40.4447
0.000298959
-2.88524e-05
-0.000365057
-0.000703808
-0.00103562
-0.00135329
-0.00165282
-0.00193384
-0.00219943
-0.00245434
-0.00270724
-0.00296382
-0.00322446
-0.00348284
-0.00372412
-0.00392215
-0.00403933
-0.00402851
-0.0038379
-0.00342353
-0.00277123
-0.00191334
-0.000932727
4.56345e-05
0.000873912
0.00122496
0.00138119
0.000933336
-3.8111e-05
-0.00142846
-0.00299477
-0.00439731
-0.00518286
-0.00546655
-0.0050575
-0.00413891
-0.00304203
-0.00161829
-4.15576e-05
0.00150777
0.00278424
0.0035407
0.00363764
0.003125
0.00224289
0.00134912
0.00143164
0.00246818
0.00355471
0.00407484
0.00420065
0.00411278
0.00348911
0.00231809
0.00133943
0.000907179
0.000650498
-9.49401e-05
-0.00129542
-0.00223121
-0.00257611
-0.00279783
-0.00312298
-0.00340763
-0.00332259
-0.00266132
-0.00173883
-0.000589472
0.00106614
0.00316733
0.0058281
0.00903834
0.0123266
0.0161787
0.0204496
0.0250716
0.0298746
0.0348235
0.0397847
0.0445642
0.0494359
0.0523058
0.0569631
0.0603482
0.0619791
0.0621107
0.0598784
0.054623
0.0462686
0.0338621
0.016257
-0.0087978
-0.0403723
-0.0841984
-0.139013
-0.21291
-0.304574
-0.421102
-0.568269
-0.750992
-0.991277
-1.28258
-1.66257
-2.12451
-2.71414
-3.45485
-4.37488
-5.54121
-6.917
-8.70038
-10.7497
-13.3496
-16.3256
-19.7545
-23.9918
-28.1223
-32.8685
-37.6774
-43.6977
-49.7038
-56.0515
-61.873
-67.3334
-72.0671
-74.4343
-77.0088
-75.1766
-74.2707
-73.647
-59.6797
-47.4235
-33.9967
-17.3715
-11.8397
-5.22912
1.345
7.9071
16.6775
24.1686
30.5404
35.1026
38.3813
42.9932
47.6544
52.257
56.7192
60.9079
64.6997
67.9992
70.5471
71.8788
71.8776
70.1839
65.6728
57.2533
44.3827
27.3249
7.58387
-6.80881
-24.1793
-44.4418
-54.4853
-62.0628
-67.1877
-70.2432
-71.6348
-71.7183
-70.786
-69.0815
-66.8173
-64.1786
-61.3151
-58.3182
-55.2317
-52.0856
-48.8782
-45.6005
-42.2631
-38.9152
-35.9265
0.00116774
0.00156097
0.00177757
0.00180509
0.00163152
0.00125109
0.00066665
-0.000107805
-0.00104589
-0.00184375
-0.00294208
-0.00392008
-0.00464636
-0.00504614
-0.00505144
-0.00461983
-0.00376126
-0.00255403
-0.00115973
0.000114828
0.000849232
0.00116998
0.000998368
0.000344699
-0.000684165
-0.00187788
-0.00292681
-0.00371017
-0.00398234
-0.0035867
-0.00253931
-0.00110176
0.000192451
0.000603374
0.000292024
-0.000688707
-0.00197371
-0.00296681
-0.00310899
-0.00211036
-6.56579e-05
0.00241234
0.00425052
0.00442325
0.0020989
-0.0024237
-0.00278509
0.00077097
0.00286229
0.00142445
0.000405652
0.00219575
0.0023559
-0.00165581
-0.00380497
-0.00246068
0.000331215
-0.000379814
-0.00425152
-0.00620653
-0.00416371
-0.00271794
-0.00333086
-0.00394721
-0.00287192
-0.000776471
0.000690987
0.00140769
0.00361204
0.00640645
0.0120642
0.0144012
0.0185209
0.0258211
0.0331157
0.0415214
0.05006
0.0601308
0.0704868
0.0830412
0.0955116
0.111167
0.126404
0.148678
0.165691
0.186056
0.201099
0.21693
0.225612
0.230016
0.224074
0.201111
0.164367
0.0877261
-0.010177
-0.170606
-0.379373
-0.672788
-1.06328
-1.56912
-2.23866
-3.06042
-4.10513
-5.36619
-6.93444
-8.78204
-10.998
-13.5058
-16.4177
-19.5809
-23.1417
-26.8194
-31.0483
-35.4171
-39.6256
-44.1685
-47.8765
-51.5678
-54.9435
-56.9126
-58.5379
-58.3209
-58.2983
-55.4155
-53.0734
-47.7643
-43.4094
-39.6015
-27.3804
-16.7496
-11.1099
-0.739117
6.37339
12.5941
23.5702
33.8438
40.7341
45.6385
48.3448
49.4602
49.426
50.8899
53.1854
55.7106
58.195
60.602
62.9164
65.0452
66.9754
68.5081
69.2991
67.9501
64.1375
56.6422
44.6528
28.7401
10.5708
-3.94915
-18.9885
-37.8164
-47.4792
-54.7116
-59.8303
-63.1493
-65.0069
-65.6859
-65.4209
-64.4067
-62.8116
-60.7865
-58.458
-55.9167
-53.2158
-50.3877
-47.4608
-44.4364
-41.3096
-38.1009
-34.9048
-32.0915
0.00581755
0.00734879
0.00821035
0.00838142
0.00786239
0.0067005
0.00499716
0.00290914
0.000730699
-0.0014023
-0.00334661
-0.00494712
-0.00605925
-0.00657271
-0.00643201
-0.00566013
-0.00437599
-0.00279419
-0.0012359
-0.000134063
0.000560546
0.000590352
-0.000280841
-0.0019904
-0.00418207
-0.00629393
-0.00773252
-0.00809162
-0.00685746
-0.00399854
1.38574e-05
0.00421698
0.00735926
0.00827965
0.00649115
0.00231468
-0.00314402
-0.00817984
-0.0111755
-0.0109814
-0.00648204
0.00160865
0.00968225
0.0136443
0.00791058
-0.0107361
-0.0121349
0.000114908
0.00528238
-0.00239941
-0.00798341
0.00269551
0.00856456
-0.00684866
-0.0123738
-0.00697793
0.00494389
0.00809813
-0.00608729
-0.0114371
-0.00155746
0.00429273
0.00105882
0.000153065
0.00185893
0.0106747
0.0150551
0.0157697
0.0215286
0.03246
0.044586
0.0564529
0.0696454
0.0923377
0.116202
0.145571
0.175572
0.214457
0.254552
0.307245
0.35842
0.42811
0.489927
0.570946
0.637886
0.729032
0.800357
0.883656
0.933546
0.976118
0.972013
0.92244
0.813285
0.599621
0.322845
-0.121946
-0.663446
-1.4051
-2.3217
-3.44345
-4.79941
-6.3538
-8.15521
-10.1718
-12.4666
-15.0188
-17.8013
-20.6884
-23.6786
-26.7632
-29.768
-32.9455
-35.6211
-38.3168
-40.3359
-42.2273
-43.8704
-45.0843
-45.5375
-44.414
-43.8988
-41.1694
-39.2678
-35.389
-32.0064
-28.7778
-19.0766
-13.3635
-1.33544
4.18404
9.75669
19.7755
29.3777
38.7082
48.0922
55.2539
59.3891
60.4307
59.4447
57.5063
55.3259
55.0408
55.938
56.8388
57.8883
59.1928
60.9039
62.9434
64.7395
66.0521
66.2201
63.5379
57.3426
46.8687
32.4483
15.6978
0.361343
-11.6163
-29.5473
-39.6026
-46.6976
-51.9324
-55.6034
-57.988
-59.3133
-59.7593
-59.4757
-58.5918
-57.2266
-55.4932
-53.4831
-51.2567
-48.8635
-46.309
-43.624
-40.8032
-37.843
-34.7603
-31.7145
-29.0357
0.00362935
0.0060471
0.00769999
0.0085774
0.00868851
0.00809881
0.00691263
0.00537297
0.00350827
0.00137628
-0.000744299
-0.00254
-0.0037327
-0.00411941
-0.00361099
-0.00227109
-0.000340959
0.00175826
0.00347159
0.00431252
0.00407598
0.00177046
-0.00271606
-0.00891651
-0.0157077
-0.0214548
-0.0243857
-0.0231539
-0.0172847
-0.00748322
0.00438218
0.0155992
0.0233687
0.0253503
0.0212233
0.0116512
-0.00188752
-0.0160429
-0.0280487
-0.0359413
-0.0285535
-0.00380869
0.0253039
0.0464754
0.0366326
-0.040329
-0.0366965
0.00991979
0.0219146
-0.00757379
-0.0453797
0.021091
0.0470745
-0.0202842
-0.0376554
-0.022368
0.0262286
0.0411867
-0.0131708
-0.0276832
0.016929
0.0416556
0.0227825
0.00820442
0.0358433
0.0721201
0.0881136
0.0919181
0.117995
0.166714
0.219395
0.273334
0.331268
0.412778
0.506891
0.629265
0.756082
0.914735
1.07418
1.26948
1.45419
1.67775
1.87018
2.09749
2.26382
2.45545
2.55772
2.66121
2.63161
2.55796
2.3296
1.9884
1.48783
0.829234
0.0781103
-0.909203
-1.95859
-3.28332
-4.70904
-6.33289
-8.08318
-9.93208
-11.9535
-14.0351
-16.2223
-18.4034
-20.6091
-22.7283
-24.8472
-26.8986
-28.8327
-30.7635
-31.8474
-33.0476
-33.4822
-34.0839
-33.844
-33.2217
-32.6992
-30.3552
-29.1203
-24.2993
-21.8296
-18.1915
-12.6141
-5.51415
5.02027
8.61595
15.415
24.6733
33.1608
41.9403
50.9879
59.8473
67.063
70.7239
70.7152
67.8133
63.7235
59.5946
56.11
54.4741
54.0416
54.0807
54.7089
55.9609
57.9407
60.3471
62.3023
63.2426
62.0528
57.4202
48.6955
35.9776
20.6787
5.48446
-4.91094
-20.7746
-31.2573
-38.1941
-43.3895
-47.2899
-50.1281
-52.0773
-53.2612
-53.771
-53.6839
-53.0745
-52.0247
-50.6274
-48.9598
-47.0724
-45.0069
-42.7696
-40.3703
-37.803
-35.0583
-32.1448
-29.2769
-26.7138
-0.012652
-0.0083944
-0.00468609
-0.00157216
0.000896348
0.00272398
0.00396497
0.00472661
0.00495233
0.00506639
0.0055536
0.0068995
0.00950045
0.013558
0.0189708
0.0252341
0.0314135
0.0361781
0.0379249
0.0350703
0.0264529
0.0117249
-0.0083628
-0.0313155
-0.0529523
-0.0681751
-0.0722476
-0.0632907
-0.0429481
-0.015701
0.0124516
0.0355499
0.0512665
0.0553346
0.0530392
0.0423318
0.0181498
-0.0140564
-0.0526017
-0.111303
-0.10328
-0.0268715
0.060347
0.145865
0.155243
-0.156411
-0.1124
0.103034
0.0964082
-0.0148129
-0.223873
0.0841153
0.216784
-0.0586706
-0.239107
-0.0373153
0.220296
0.150218
-0.0821099
-0.0939276
0.107775
0.210688
0.13939
0.0929137
0.199412
0.343115
0.424079
0.469772
0.59243
0.78334
0.995632
1.19449
1.41577
1.67699
1.97029
2.29177
2.60461
2.93493
3.22453
3.51521
3.72974
3.91895
4.00597
4.06499
4.02651
3.94901
3.73693
3.46431
3.00747
2.47606
1.76431
0.957886
0.00710652
-1.0353
-2.15322
-3.46005
-4.73206
-6.23234
-7.6933
-9.24884
-10.8159
-12.3922
-14.0735
-15.7231
-17.3402
-18.8363
-20.2859
-21.6022
-22.8547
-23.8953
-24.7537
-25.4834
-25.7176
-25.9205
-25.2224
-24.9426
-22.7811
-21.7255
-19.7985
-16.32
-13.184
-8.95625
-3.71226
1.08405
6.6639
16.804
21.9587
29.4363
37.0628
45.3917
53.5469
61.5185
69.7416
77.0214
80.9389
80.3086
75.7727
69.3708
62.9699
57.4696
53.2971
50.9046
49.837
49.789
50.7194
52.4962
54.9675
57.5489
59.3444
59.4059
56.4816
49.6288
38.7948
25.1005
10.8021
-0.0674931
-11.1228
-23.7498
-29.769
-34.619
-38.4534
-41.4992
-43.9011
-45.7399
-47.0509
-47.8438
-48.1237
-47.9068
-47.2379
-46.2009
-44.8785
-43.3276
-41.5912
-39.6858
-37.6106
-35.3395
-32.8576
-30.182
-27.4716
-25.0655
-0.0764377
-0.0753703
-0.0735901
-0.0711187
-0.0678141
-0.063338
-0.0571746
-0.0486798
-0.037178
-0.0220618
-0.00291359
0.0203974
0.0474924
0.0772627
0.107782
0.135826
0.157472
0.168477
0.164422
0.141908
0.0998673
0.0419089
-0.0291484
-0.10225
-0.162248
-0.194517
-0.185573
-0.141418
-0.0794767
-0.0175289
0.027165
0.046997
0.0749054
0.0810267
0.122439
0.155908
0.130849
0.0623743
-0.0452632
-0.383218
-0.393635
-0.0666296
0.0814505
0.416156
0.530497
-0.337275
-0.681411
0.825604
0.554718
-0.903229
-0.893382
0.641835
1.11379
-0.149504
-0.983181
-0.175593
0.817244
0.594018
-0.178857
-0.183392
0.473624
0.8309
0.692778
0.638028
0.933953
1.32472
1.58113
1.76592
2.03637
2.38855
2.73278
3.00339
3.26497
3.50388
3.76685
3.99125
4.16009
4.2608
4.269
4.23278
4.08963
3.90176
3.61644
3.26785
2.86108
2.33088
1.71702
1.02751
0.302658
-0.510329
-1.40492
-2.32839
-3.33338
-4.37731
-5.47041
-6.72557
-7.81712
-9.20469
-10.4135
-11.5529
-12.8308
-13.9715
-15.1054
-16.2045
-17.2046
-18.1102
-18.8671
-19.4239
-19.8729
-19.9191
-19.8413
-19.5444
-18.7343
-17.7333
-16.0727
-14.3089
-11.737
-8.75687
-5.48868
-1.33776
3.16105
8.16272
14.2671
20.068
26.8625
34.5587
41.0266
49.6555
56.9969
64.4355
71.8586
78.8897
85.8926
90.6245
90.1771
84.5835
76.0643
66.9765
58.9993
52.8248
48.5017
45.9807
44.9854
45.3368
46.8503
49.2208
52.0313
54.5126
55.651
54.3024
49.3673
40.4826
28.4844
15.3941
3.89639
-4.32017
-15.7953
-22.1419
-26.36
-29.7101
-32.5095
-34.954
-37.1266
-39.0428
-40.6664
-41.93
-42.7567
-43.0841
-42.8939
-42.2543
-41.2687
-40.0209
-38.5825
-36.9938
-35.2546
-33.3143
-31.1362
-28.7422
-26.185
-23.9774
-0.294853
-0.343416
-0.386824
-0.422004
-0.44543
-0.453221
-0.441236
-0.405602
-0.343771
-0.255792
-0.144786
-0.0152575
0.125778
0.268134
0.403216
0.51261
0.580637
0.599457
0.557853
0.451096
0.284566
0.106956
-0.125994
-0.334572
-0.466597
-0.500539
-0.376706
-0.189773
-0.037291
0.0529061
0.0124405
-0.122468
-0.136615
-0.0244233
0.324992
0.660457
0.673957
0.513193
0.0285506
-1.56613
-1.32492
-0.577416
0.405629
4.02706
1.68934
-4.74241
-1.85138
4.64111
2.63562
-3.90855
-3.60702
2.43166
4.05789
-0.159398
-2.69771
-0.613515
1.93854
1.77206
0.409719
0.262187
1.16448
1.78132
1.81403
1.8167
2.05913
2.38898
2.62624
2.78137
2.9089
3.04545
3.14305
3.18716
3.19983
3.14511
3.08044
2.95551
2.73416
2.46911
2.18808
1.88412
1.5097
1.12374
0.666013
0.119433
-0.396933
-1.1715
-1.96446
-2.69847
-3.407
-4.30039
-5.23721
-6.16618
-7.12233
-8.07358
-9.01123
-10.0872
-10.8266
-12.2445
-12.7374
-13.4733
-14.5643
-15.1872
-15.7421
-16.2089
-16.5361
-16.6847
-16.6278
-16.3288
-15.8064
-14.9484
-13.7864
-12.2955
-10.3809
-8.15506
-5.37847
-2.27952
1.36009
5.55699
10.1026
15.2515
20.7811
26.7135
33.3638
39.8951
47.3745
53.3343
62.947
70.2263
75.9157
82.1402
89.117
95.0429
100.238
101.377
95.6617
84.9448
72.8917
62.0062
53.4092
47.2451
43.2312
41.0819
40.5612
41.4781
43.5273
46.2577
49.047
50.9747
50.9054
47.7297
40.808
30.5795
18.7092
7.37446
0.117585
-9.36034
-15.8939
-19.488
-22.0628
-24.1334
-26.0031
-27.8911
-29.8617
-31.9026
-33.934
-35.8309
-37.4224
-38.5403
-39.0392
-38.9114
-38.2814
-37.2851
-36.0635
-34.7164
-33.2842
-31.6843
-29.8387
-27.7436
-25.3534
-23.3422
-0.850777
-1.11542
-1.36312
-1.57211
-1.72686
-1.81205
-1.80793
-1.6916
-1.44438
-1.07354
-0.618264
-0.106295
0.424224
0.897161
1.34898
1.64412
1.7145
1.67639
1.44705
1.00549
0.460662
-0.187956
-0.70007
-1.06083
-1.08306
-0.893554
-0.138038
0.441157
0.479604
0.221139
-0.686707
-1.9468
-1.82645
-0.531935
1.24154
4.40169
4.32161
2.69048
-1.59772
-9.70157
-6.57898
-2.22692
6.70751
21.5676
1.21688
-23.1095
-4.94528
16.6722
8.49794
-8.88109
-8.42283
2.8202
6.23555
1.35078
-1.91274
-0.588861
1.56943
1.97725
1.31869
1.06233
1.42345
1.75335
1.83388
1.77798
1.80532
1.82994
1.83205
1.77522
1.68178
1.59173
1.51186
1.37863
1.22847
0.949891
0.729005
0.333896
-0.116059
-0.523584
-0.919746
-1.43691
-2.00058
-2.5763
-3.19734
-3.90798
-4.43125
-5.57764
-6.27152
-6.74382
-7.4745
-8.58885
-9.46553
-10.3249
-11.1758
-11.9847
-12.7567
-13.537
-14.1176
-14.836
-15.2873
-15.598
-15.8867
-15.9591
-15.8628
-15.5855
-15.0867
-14.3371
-13.3127
-11.9852
-10.3531
-8.35575
-5.98772
-3.22562
-0.040704
3.51816
7.56925
12.0141
16.9201
22.3174
28.057
34.2393
40.7112
47.4763
54.6026
61.6876
69.0656
76.0693
82.524
88.5447
97.311
102.755
107.299
111.439
114.151
110.703
98.91
83.1345
68.1473
56.2291
47.6662
41.9793
38.5864
37.0604
37.1271
38.5232
40.8412
43.5137
45.77
46.5828
44.8097
39.6462
31.2275
20.7424
10.2216
2.04718
-4.33181
-11.423
-14.5035
-16.3666
-17.5367
-18.4359
-19.3499
-20.5408
-22.1682
-24.2097
-26.5985
-29.2062
-31.7878
-34.0681
-35.6991
-36.4123
-36.2901
-35.5339
-34.4062
-33.1321
-31.8768
-30.5855
-29.065
-27.2665
-25.0154
-23.1864
-4.1093
-4.98477
-5.79649
-6.48485
-6.92684
-7.06605
-6.83297
-6.14904
-4.72139
-2.78318
-0.695294
1.40858
3.40263
4.44151
5.73235
5.71228
4.19125
3.42157
1.34177
-1.4949
-3.25592
-4.22701
-3.88444
-2.24229
0.491292
4.10014
6.7395
7.73676
4.87603
-4.24019
-14.0049
-19.1706
-13.8319
-0.935123
17.2603
32.8196
29.0914
8.54469
-28.325
-52.0378
-34.7029
4.81397
54.4879
54.9716
-15.0364
-44.4197
-6.62308
18.6066
9.94909
-4.62066
-5.85898
0.658416
3.27654
1.31535
-0.382249
0.00634693
0.9527
1.09755
0.786471
0.610719
0.743961
0.818716
0.788324
0.641074
0.546398
0.368213
0.238229
-0.0243505
-0.308394
-0.546287
-0.782245
-1.15882
-1.51901
-2.00831
-2.3446
-3.13168
-3.65252
-4.02845
-4.61749
-5.50247
-6.21846
-6.96662
-7.76307
-8.59297
-9.36271
-10.2997
-11.1908
-11.9818
-12.7325
-13.6027
-14.4317
-15.1894
-15.8834
-16.4851
-16.9999
-17.4166
-17.6568
-17.8065
-17.7453
-17.4776
-17.0106
-16.2955
-15.3275
-14.0832
-12.5311
-10.6467
-8.40891
-5.79677
-2.80456
0.603633
4.43389
8.69849
13.398
18.5034
24.0616
30.013
36.3648
43.0993
50.0995
57.3842
64.817
72.3665
79.9862
87.455
94.7628
101.782
107.997
113.667
118.383
121.806
125.828
133.203
132.774
121.204
102.202
81.4337
63.8793
51.3874
43.1667
38.1421
35.4575
34.5571
35.0791
36.6578
38.7933
40.8311
41.9183
41.0357
37.2691
30.3632
21.2733
11.7351
3.50944
-1.95886
-8.14068
-11.3364
-12.7296
-13.1596
-13.0978
-12.8724
-12.7955
-13.1708
-14.2352
-15.9793
-18.4845
-21.6481
-25.3196
-29.1563
-32.6818
-35.036
-35.9486
-35.6563
-34.5497
-33.1203
-31.6793
-30.585
-29.3272
-27.7666
-25.5726
-23.8564
-25.0554
-27.3964
-29.3983
-30.4089
-29.2753
-25.7542
-20.2053
-12.0402
-0.575726
13.1125
26.0771
35.5916
40.5086
39.4476
32.4538
19.4401
0.820402
-18.449
-39.5972
-53.7667
-55.8861
-41.6944
-9.20647
28.7247
65.8049
88.183
82.2059
46.7802
-18.5749
-92.325
-132.462
-111.672
-39.1343
53.5803
121.251
125.175
64.2948
-28.423
-94.9974
-93.0553
-32.8948
36.2371
63.8127
30.9686
-19.3327
-26.3892
-2.00539
9.95086
4.09564
-2.92667
-2.46816
0.814311
1.5919
0.361741
-0.457814
-0.192672
0.222764
0.169217
-0.0904318
-0.30311
-0.33751
-0.526116
-0.683506
-0.931791
-1.17287
-1.5892
-1.86953
-2.47254
-2.89037
-3.20665
-3.70692
-4.46591
-5.07408
-5.79003
-6.46395
-7.30254
-8.16861
-8.99805
-9.83877
-10.8013
-11.7828
-12.7685
-13.7768
-14.7786
-15.7546
-16.7484
-17.7063
-18.5994
-19.4056
-20.1769
-20.8673
-21.4369
-21.8757
-22.1525
-22.261
-22.1693
-21.8399
-21.2777
-20.4273
-19.279
-17.8067
-15.9861
-13.7998
-11.2222
-8.23005
-4.80316
-0.925983
3.41367
8.21725
13.4999
19.2565
25.4809
32.1522
39.2389
46.7364
54.5817
62.7416
71.1469
79.6817
88.3065
96.8822
105.328
113.554
121.39
128.663
135.344
141.21
146.097
149.033
150.776
154.666
158.296
153.062
134.658
108.589
83.2043
63.6296
50.2547
42.046
37.4059
35.1788
34.615
35.1819
36.3679
37.5838
38.1465
37.2696
34.1922
28.5611
20.8343
12.2404
4.43714
-0.715289
-6.07761
-9.13066
-10.4368
-10.5306
-9.93546
-8.9183
-7.76513
-6.76606
-6.14518
-6.13355
-7.18289
-9.39189
-12.8691
-17.432
-22.8772
-29.1132
-34.7176
-37.99
-39.0886
-38.3195
-36.6415
-34.7132
-33.4942
-32.3233
-30.7948
-28.4123
-26.4926
-274.228
-265.879
-243.223
-203.778
-143.458
-59.1496
45.3406
159.171
267.301
349.878
391.605
381.842
318.237
206.587
59.7437
-103.533
-263.342
-389.312
-453.595
-407.807
-244.655
3.82087
266.319
441.25
480.385
361.749
112.844
-159.87
-341.128
-359.547
-224.459
-27.978
122.236
167.653
123.706
49.9273
-7.7499
-40.8438
-53.2841
-40.404
-6.75332
24.7774
31.0547
9.0687
-14.0203
-12.1322
1.21393
5.25992
0.981791
-2.22504
-1.40871
0.426792
0.352873
-0.507632
-0.928729
-0.778241
-0.771854
-1.01442
-1.30103
-1.6284
-1.92263
-2.44766
-2.70483
-3.15381
-3.71435
-4.50716
-5.07863
-5.82915
-6.63869
-7.45297
-8.31478
-9.31632
-10.3456
-11.4431
-12.5545
-13.7457
-14.9886
-16.2458
-17.5026
-18.7983
-20.1144
-21.4187
-22.7119
-23.9613
-25.1584
-26.2936
-27.3358
-28.2658
-29.0521
-29.6898
-30.1484
-30.3907
-30.3948
-30.1242
-29.558
-28.6546
-27.3836
-25.7213
-23.6257
-21.0809
-18.0529
-14.5201
-10.4606
-5.85024
-0.673243
5.08302
11.4253
18.3522
25.8526
33.9171
42.5186
51.6246
61.1863
71.1514
81.4635
92.0301
102.773
113.568
124.273
134.795
144.971
154.665
163.763
172.093
179.359
185.576
190.878
194.517
195.187
195.214
198.518
199.952
188.345
160.317
124.726
92.462
68.93
54.0466
45.4024
40.7939
38.707
38.1157
38.2425
38.395
37.9075
36.1571
32.6237
27.0988
19.98
12.2129
4.92746
0.0417999
-4.66225
-7.23594
-8.3787
-8.28476
-7.22439
-5.65967
-3.79262
-1.81876
-0.0459177
1.38623
1.99442
1.58847
-0.0915864
-3.13476
-7.67201
-13.965
-22.8776
-34.178
-42.3896
-47.1775
-48.8912
-47.0917
-43.5983
-41.6054
-40.4656
-38.8807
-36.2555
-33.8712
-1137.15
-764.472
-305.285
225.844
795.247
1342.84
1787.26
2048.9
2054.22
1770.61
1247.59
581.397
-117.099
-743.023
-1218.87
-1496.55
-1540.54
-1319.24
-827.498
-145.414
548.934
1038.05
1176.99
946.991
458.229
-84.1604
-475.954
-594.363
-445.235
-157.329
100.398
208.898
162.032
49.513
-27.641
-35.3736
-12.2392
-5.4032
-16.3189
-16.4079
2.54992
19.0818
14.8964
-3.05516
-12.1893
-4.58227
3.1544
2.63289
-1.12674
-2.32177
-1.28105
-0.105169
-0.799872
-1.68291
-2.00447
-2.00986
-2.46547
-2.93601
-3.3509
-3.99317
-4.83167
-5.5788
-6.38102
-7.31453
-8.31148
-9.46978
-10.6468
-11.9373
-13.3293
-14.7932
-16.3179
-17.9377
-19.6289
-21.3885
-23.1902
-25.0495
-26.9447
-28.8539
-30.7574
-32.6511
-34.5206
-36.3316
-38.0709
-39.6991
-41.1973
-42.5325
-43.6663
-44.5691
-45.202
-45.5296
-45.5086
-45.0939
-44.2491
-42.9261
-41.0862
-38.6765
-35.6615
-32.0009
-27.6516
-22.5925
-16.7843
-10.2073
-2.83926
5.33987
14.3334
24.1403
34.7499
46.1365
58.2623
71.0795
84.5205
98.5073
112.942
127.726
142.728
157.794
172.78
187.475
201.689
215.253
227.955
239.593
250.01
259.002
266.159
271.56
275.618
277.003
274.253
271.439
272.735
269.995
250.128
210.056
161.633
118.87
88.429
69.4616
58.5779
52.795
49.9849
48.5931
47.4162
45.4959
42.1253
36.943
30.0298
21.9786
13.8164
6.53821
1.56044
-3.08244
-5.03169
-5.62458
-4.96538
-3.38865
-0.999929
1.84367
4.61194
7.35283
9.66755
11.4274
12.3688
12.1375
10.6775
7.89581
3.2329
-3.02479
-11.5802
-29.6411
-46.8369
-59.3506
-66.6282
-68.6125
-64.9956
-60.263
-59.5645
-57.9938
-55.0229
-51.3962
-1178.57
-56.2682
1083.95
2157.21
3072.94
3739.62
4069.33
3995.53
3493.21
2588.89
1377.16
28.7076
-1239.88
-2214.51
-2733.55
-2725.99
-2224.49
-1352.47
-297.689
712.496
1441.36
1704.36
1449.55
799.826
8.95601
-640.227
-939.036
-822.636
-399.428
92.8908
407.495
424.256
215.759
-24.5309
-138.547
-110.963
-37.5217
-0.773432
1.42643
8.55181
24.7507
23.8274
-0.141545
-20.9014
-15.5614
2.88595
7.4442
0.183665
-5.03958
-4.06447
-1.94812
-1.59455
-3.11064
-4.87701
-5.3822
-5.74061
-6.70657
-8.09973
-9.55701
-10.9904
-12.5374
-14.3006
-16.2552
-18.3971
-20.6075
-22.9837
-25.5078
-28.2011
-31.044
-34.0119
-37.0807
-40.2535
-43.5199
-46.8574
-50.2375
-53.645
-57.0398
-60.3954
-63.6783
-66.8465
-69.8668
-72.6843
-75.2625
-77.5366
-79.4564
-80.9526
-81.9595
-82.4191
-82.2596
-81.4038
-79.7774
-77.3074
-73.9293
-69.5661
-64.1468
-57.5977
-49.8677
-40.8946
-30.6359
-19.0644
-6.13688
8.15496
23.8253
40.8692
59.2533
78.9368
99.8537
121.912
144.999
168.971
193.658
218.861
244.364
269.939
295.288
320.118
344.116
366.91
388.193
407.655
424.979
439.841
451.982
461.154
466.83
469.166
468.838
463.99
453.132
442.399
436.162
422.676
388.055
329.009
255.828
190.993
144.248
114.337
96.5303
86.5383
80.9988
77.2364
73.2005
67.4165
59.089
48.3129
36.09
23.9742
13.4817
6.23824
1.08573
-2.0635
-1.68119
0.295771
3.80617
8.33879
13.0724
19.1824
23.9556
28.3618
31.7662
33.9929
34.742
34.081
31.9992
28.3133
22.7631
15.1209
6.33301
-15.8207
-45.9937
-70.9781
-90.1275
-102.303
-105.282
-101.885
-104.732
-105.251
-103.237
-96.9443
-117.424
-94.8715
-49.0539
12.8593
79.1434
142.21
245.819
348.222
417.576
521.43
614.69
732.075
830.807
900.269
960.276
1013.52
1046.42
915.517
715.317
488.225
370.045
246.28
112.863
39.0827
-168.09
-74.4996
-58.9649
-34.5404
-1.67005
33.4635
63.1191
122.231
178.578
222.643
266.958
324.136
400.166
457.927
498.201
538.433
572.749
569.365
492.406
385.452
259.104
198.204
139.805
63.1837
23.9264
-81.0107
-60.4585
-42.5853
-30.9573
-9.14144
13.5689
31.4219
70.2816
106.714
142.212
164.617
201.349
258.233
301.09
328.576
361.145
386.932
374.301
321.462
253.581
171.173
132.416
98.1995
46.9182
21.9096
-43.4665
-52.9508
-35.9526
-28.3837
-14.2385
1.50597
13.3392
39.2028
64.1286
93.7421
107.877
131.21
172.435
209.202
230.984
259.284
279.905
267.101
229.336
183.932
127.488
99.5859
77.7133
42.5388
24.3872
-20.5182
-46.6377
-33.152
-24.7279
-17.6493
-5.92059
2.5858
19.3114
36.882
59.593
74.2704
86.5627
113.289
148.994
167.416
193.57
210.709
201.298
174.339
143.158
103.529
82.3821
65.7311
43.7847
28.4173
-4.71742
-39.2509
-29.166
-22.9299
-16.2453
-10.6726
-3.26927
6.88185
18.8947
35.7518
49.654
57.5796
74.1948
102.971
121.708
146.585
162.112
157.002
138.47
116.944
88.8475
72.6827
59.9753
45.3575
32.0865
7.0444
-29.3881
-23.4868
-19.2553
-14.7597
-9.89781
-6.41772
-0.0666946
7.51385
19.4403
30.7304
38.8359
47.1238
65.9411
87.9817
110.283
125.241
124.596
112.832
98.2481
78.5345
66.2621
57.5153
44.2948
36.1833
16.3796
-17.9831
-15.7879
-13.348
-10.9713
-8.18792
-5.33671
-3.05477
1.26112
9.06184
17.5001
24.2939
28.9719
40.4147
59.167
81.0557
95.6817
98.6454
92.7919
83.3555
69.9807
61.0676
55.116
44.3683
38.4619
23.3688
-6.5768
-6.15357
-5.58326
-5.22292
-4.39975
-3.00298
-2.24685
-0.998044
3.31662
8.99871
13.4059
17.2536
22.7737
35.3998
57.3183
70.9425
76.8673
75.4132
70.391
61.7629
55.9629
52.2355
44.5829
39.1191
28.5647
4.60992
3.94848
2.81347
1.70631
0.88638
0.90596
0.226057
-0.470864
1.46072
4.42815
6.61516
8.54005
11.4269
19.3381
36.4679
49.6194
58.1638
59.5558
57.9629
53.3718
50.3537
48.5494
43.7422
39.9825
31.4236
14.825
12.9084
10.7814
8.90813
6.89725
5.70453
4.0826
1.90057
1.9863
2.82742
2.83598
2.90079
4.54751
8.96903
18.9685
31.2797
42.6539
45.1967
45.7364
44.4669
43.9437
43.8018
41.8494
39.4838
33.4395
23.1257
20.4866
18.2071
15.6334
12.8333
10.704
8.43866
5.28634
3.96264
3.16299
1.56172
0.276098
0.414095
2.47786
7.68784
15.9633
28.0966
32.0822
34.2093
34.907
36.8499
37.8658
38.9336
37.8995
34.4756
29.6665
26.9454
24.2401
21.2662
18.0028
15.2235
12.5269
8.85893
6.48333
4.50392
1.84945
-0.410313
-1.59689
-1.55127
0.721453
5.29066
15.193
19.5618
24.2218
25.3576
29.0395
31.3272
34.794
35.2605
34.5993
34.7236
31.6864
28.5943
25.3842
21.8724
18.632
15.642
11.8146
8.69353
5.92755
2.7403
-0.157012
-2.43555
-3.83707
-3.4163
-1.54177
4.91198
9.13223
15.0646
16.5986
20.9957
24.2045
29.8684
31.718
33.8618
37.9647
34.5073
31.0193
27.5908
23.8978
20.3283
17.1514
13.3068
9.75887
6.49901
3.30236
0.126363
-3.06246
-5.22224
-5.85903
-5.75122
-2.85806
1.25645
7.31418
9.05316
13.3706
17.1107
24.4591
27.5264
32.3637
38.8484
34.8069
30.663
26.8382
22.9313
19.4353
16.0995
12.5976
8.88322
5.27649
2.56751
-0.278029
-4.48693
-5.87321
-7.72365
-9.8462
-6.5313
-4.37196
0.32885
2.5965
7.08778
10.7555
18.9298
22.9868
30.2701
34.8311
30.5192
25.6063
21.5371
18.011
13.9931
11.3641
8.7797
5.45297
1.79443
-0.541879
-1.94563
-5.6202
-8.34836
-10.3482
-12.0929
-10.8562
-7.5359
-5.27908
-2.21395
2.42064
5.58936
13.8097
18.5665
27.7553
23.384
20.1923
14.8184
11.8293
9.98989
5.81258
3.86978
2.15552
-0.383295
-3.10786
-4.42599
-6.29198
-9.36711
-10.9178
-13.0104
-14.5725
-14.1907
-12.1137
-8.24879
-4.91534
-1.928
1.45072
9.56437
14.6238
25.0695
11.3342
7.83347
6.71805
4.96542
2.29958
-0.0634751
-2.14278
-3.82145
-5.93518
-7.97102
-9.08582
-10.9829
-13.227
-14.4068
-16.0645
-17.3765
-17.1606
-15.8585
-12.7069
-7.10939
-4.68238
-1.21097
6.19004
11.2052
22.297
2.98936
2.14855
0.881904
-0.528068
-1.65916
-3.24904
-4.92102
-6.46387
-8.34161
-10.2593
-11.6705
-13.5979
-15.7025
-16.9153
-18.4574
-19.8435
-19.6864
-18.8019
-16.9175
-11.4223
-5.06669
-2.81585
2.87946
7.89591
19.3493
-0.656582
-0.86846
-0.938471
-1.00319
-1.79679
-2.64721
-3.60193
-4.64601
-6.04407
-7.694
-9.38253
-11.4875
-13.8793
-15.7507
-17.8311
-20.0713
-20.6602
-20.2448
-19.7309
-15.7431
-8.08341
-2.66941
-0.127465
4.76669
16.0577
-4.44514
-3.90958
-2.58159
-1.69911
-0.925307
-0.755208
0.0512373
0.861609
1.20063
1.23657
0.837614
-0.880247
-2.62856
-5.75205
-10.477
-14.7796
-17.324
-18.3374
-19.4679
-18.2765
-11.8884
-3.87395
-1.35407
1.94737
11.5345
-7.84693
-6.75047
-2.28842
3.29826
4.77416
7.14948
11.632
14.4697
16.3032
16.9048
16.8386
15.6829
11.7127
9.2623
5.84271
3.92873
0.268984
-7.65047
-12.8796
-15.8847
-13.8452
-6.63006
-1.64649
-0.0364761
6.27333
-12.7854
-6.87656
1.30567
3.89985
8.22696
16.4758
23.6258
30.2161
37.0282
41.2198
44.4301
47.5447
43.6249
36.6047
27.5792
22.024
13.918
7.6104
3.05978
-0.674389
-9.23
-5.94232
-1.90842
-0.845385
2.86237
-9.073
-1.98948
0.563047
5.1506
13.0849
19.8959
27.3013
34.5173
42.1021
50.2101
55.5884
60.2688
69.1082
66.7444
60.7309
53.2826
39.1352
24.9253
15.5977
7.82321
1.58606
0.0792744
-0.116863
0.0270638
1.56735
-4.68532
-2.41704
1.15676
7.5644
13.7434
20.4138
27.8384
35.2254
43.2297
52.621
60.2831
67.6921
77.6533
82.469
81.6479
76.4925
67.4145
51.0211
36.3048
21.5585
10.2756
5.15668
3.37847
2.59825
1.55441
-4.14377
-2.36179
0.98072
7.2649
13.0853
19.5267
26.8261
34.2833
42.5499
52.3094
60.9161
69.5572
80.8091
89.4249
93.572
93.8081
87.7138
71.8946
55.4049
38.7721
22.866
13.038
7.27302
5.25804
2.20624
-5.19594
-3.21592
-0.00875517
5.58581
11.48
17.9966
25.3356
32.9624
41.4686
51.3348
60.4982
69.9495
81.5292
91.705
99.6495
105.111
102.738
91.2474
74.2071
54.9299
35.5526
22.4375
13.2169
9.19624
3.65753
-8.64729
-4.43161
-1.83788
2.52026
9.34249
16.0814
23.6733
31.6285
40.4265
50.3625
59.8735
69.8605
81.6117
92.6778
102.176
111.596
114.51
107.425
92.9503
72.7707
51.259
32.7267
20.3328
13.9646
5.97104
-12.8633
-9.15417
-3.28871
0.15898
5.6044
13.8048
22.0088
30.4641
39.628
49.6612
59.419
69.7533
81.593
93.1257
103.769
114.267
122.041
120.975
109.74
90.8871
68.8096
46.8608
29.0221
19.5876
9.08129
-18.3677
-14.3218
-8.20954
-0.620511
3.1975
9.65054
20.2524
29.5513
39.1651
49.3415
59.3032
69.8701
81.6815
93.4704
104.794
115.963
125.405
130.19
124.425
108.021
85.3827
62.7762
39.7065
26.6799
13.222
-24.9183
-20.1
-13.4837
-4.5073
2.7027
6.97135
16.1089
29.1045
39.0287
49.3951
59.5485
70.2735
81.9817
93.8798
105.525
116.996
127.62
135.04
135.263
123.193
101.852
78.0793
53.651
36.8238
18.5873
-31.9922
-26.2431
-18.8838
-9.30382
0.872004
5.44045
13.2142
26.828
39.045
49.7261
60.0597
70.8926
82.4831
94.3721
106.061
117.611
128.933
138.291
142.041
135.153
116.851
93.171
67.5935
49.3086
24.7634
-38.843
-32.2183
-24.0866
-14.0313
-2.96606
5.74126
10.9019
22.214
39.6705
50.2504
60.6722
71.5734
83.0706
94.8627
106.404
117.89
129.589
140.292
146.668
143.947
129.272
107.505
80.2862
62.624
32.1071
-44.7853
-37.4519
-28.6814
-18.2277
-6.76147
4.33084
9.93777
19.719
37.9095
50.6544
61.202
72.1331
83.5677
95.2078
106.501
117.837
129.724
141.366
149.562
150.236
138.844
120.169
91.6399
74.8735
41.3817
-49.4991
-41.6005
-32.372
-21.6813
-10.0808
1.55023
11.1034
17.8448
33.1848
52.1034
61.594
72.4034
83.781
95.2417
106.255
117.429
129.393
141.721
151.027
154.512
145.564
130.626
101.613
85.4848
50.133
-52.7737
-44.5889
-35.1382
-24.3679
-12.7396
-0.877438
10.7972
17.3645
30.4782
51.2905
61.5318
72.2274
83.519
94.7923
105.546
116.613
128.594
141.427
151.273
156.981
149.612
138.531
109.894
94.3716
57.8116
-54.7396
-46.6051
-37.1749
-26.4788
-14.9033
-2.93465
9.08637
19.0638
28.3173
48.7979
60.8682
71.4339
82.5862
93.6792
104.227
115.282
127.253
140.421
150.347
157.707
151.179
143.54
115.981
101.378
64.2804
-55.5037
-48.0379
-39.0171
-28.5194
-16.9651
-4.78886
7.41058
19.1975
27.3228
44.2044
60.8444
69.9743
80.7959
91.7063
102.129
113.234
125.193
138.512
148.116
156.554
150.346
145.478
119.337
105.99
69.4393
-54.758
-48.2094
-40.1938
-30.5431
-19.5578
-7.5488
4.99816
17.4128
27.3068
40.5025
58.7022
67.6122
77.991
88.678
99.0515
110.155
122.099
135.346
144.247
153.208
147
144.19
119.67
106.867
73.5702
-51.9813
-46.6692
-40.0042
-31.6689
-21.7935
-10.6241
1.56109
14.1641
25.7946
36.1439
53.9548
64.1143
74.3406
84.9822
95.5269
106.778
117.621
130.423
138.207
147.239
140.8
139.498
116.711
105.225
75.1236
-47.1233
-42.8031
-37.5691
-30.8029
-22.6342
-13.0407
-2.02501
9.9866
22.2686
31.8883
46.5954
59.2471
68.3968
78.6957
89.3284
100.554
111.936
124.479
131.582
138.344
131.247
131.23
110.375
100.554
74.2239
-41.9635
-38.3019
-33.1448
-27.2468
-20.3134
-12.7933
-3.63421
6.53803
17.6736
28.4321
39.2547
52.817
61.7887
71.5289
81.2971
92.2224
102.832
114.386
120.234
128.42
121.333
119.99
101.158
93.16
70.8644
-37.15
-33.9175
-29.0707
-23.7211
-17.46
-9.74911
-1.79627
6.43046
15.4209
25.2185
34.0121
46.4099
55.4278
64.2356
73.3557
83.5644
93.0149
103.277
106.827
114.22
106.967
108.881
90.4085
84.164
65.612
-32.7856
-29.8773
-25.5427
-20.5966
-14.6507
-7.13025
0.0637614
7.92178
16.1655
24.2543
31.9273
41.172
50.9831
58.3478
66.3959
75.2578
83.2595
91.7538
94.2938
100.272
93.0216
94.1371
80.0261
74.402
58.9243
-29.0738
-26.4498
-22.3694
-17.6277
-11.862
-5.16215
1.5746
9.40021
16.6861
23.5133
31.2589
38.8129
48.0609
54.4237
61.2804
68.5974
74.922
81.1581
82.8447
86.9663
79.9567
79.5708
68.881
64.1457
50.9401
-26.0976
-23.72
-19.7139
-15.0499
-9.39657
-3.12243
3.433
10.7905
16.9309
22.8596
30.1068
36.5994
44.6978
50.2251
55.8447
61.8283
66.4894
72.0142
71.6818
74.9774
67.242
66.2172
56.9237
53.0066
40.7162
-23.8717
-21.6925
-17.6554
-13.0051
-7.37765
-1.17679
5.46023
12.4199
17.9961
23.0861
28.7496
34.6596
40.9251
45.897
50.1449
54.9703
58.0548
62.6986
60.7616
63.1806
54.522
53.0461
43.5434
40.2966
27.8162
-22.3401
-20.3066
-16.2131
-11.5263
-5.84126
0.530104
7.49298
14.4407
19.8789
24.2679
28.5765
33.5574
38.2841
42.1918
44.9685
48.5237
49.9383
52.963
49.9115
51.0324
41.0829
38.8918
28.694
24.4499
11.0172
-21.4006
-19.4835
-15.3345
-10.5862
-4.78163
1.91137
9.39516
16.7275
22.458
26.4605
29.8713
33.7342
36.9191
39.2594
40.3504
42.3872
41.9195
43.2223
38.574
38.0359
25.937
22.3353
9.44288
3.41449
-10.7337
-20.9712
-19.1433
-14.945
-10.1351
-4.17983
2.9083
11.0404
19.0195
25.4498
29.5965
32.7064
35.4945
37.0079
37.2701
36.2987
36.4405
33.6914
32.9721
25.8078
22.8057
7.90597
1.87209
-16.2019
-24.5043
-38.0991
-21.0776
-19.2867
-15.0444
-10.1687
-4.06451
3.43155
12.2919
20.9466
28.4022
33.2107
37.0192
38.9351
38.6856
36.4002
32.8051
30.4857
24.7616
21.2148
10.3202
3.54833
-17.1016
-27.6117
-51.3991
-61.3606
-71.2678
-22.0764
-20.1967
-15.8894
-10.9104
-4.66029
3.22517
12.8053
22.1314
30.8046
36.6324
42.3417
43.7366
41.8189
36.7106
29.7076
24.0242
14.3947
6.10207
-10.5161
-22.3029
-54.7051
-69.5071
-99.452
-110.166
-110.877
-25.0693
-22.8677
-18.4111
-13.197
-6.69003
1.71381
11.9326
22.0726
32.0758
39.1839
47.8863
49.084
45.7679
37.6906
26.309
16.4083
-1.28632
-14.4698
-43.455
-63.7378
-110.661
-129.695
-164.642
-175.416
-160.345
-32.834
-30.0193
-25.0069
-19.1546
-11.861
-2.46665
8.67597
20.1573
31.7208
40.3486
52.8652
53.7242
48.956
37.6168
20.9623
3.89916
-25.0884
-49.4099
-96.9453
-130.78
-194.96
-218.806
-258.918
-269.673
-230.32
-50.6594
-47.1457
-40.6955
-33.1978
-23.576
-11.6674
1.5882
15.7118
29.4224
39.9186
56.754
56.4672
48.8944
33.1964
7.28234
-20.4349
-68.2994
-112.049
-187.871
-246.076
-331.902
-366.465
-414.941
-428.705
-349.217
-96.7006
-93.8957
-84.3658
-72.6723
-56.0885
-37.985
-17.4052
3.50831
23.0871
37.9662
59.3738
57.6391
42.9344
15.9824
-28.7208
-80.7034
-165.859
-256.161
-393.28
-515.676
-643.994
-716.1
-782.57
-814.451
-636.494
)
;

boundaryField
{
    inlet
    {
        type            calculated;
        value           uniform 0;
    }
    outlet
    {
        type            calculated;
        value           nonuniform List<scalar> 
57
(
-168.09
-81.0107
-43.4665
-20.5182
-4.71742
7.0444
16.3796
23.3688
28.5647
31.4236
33.4395
34.4756
34.5993
33.8618
32.3637
30.2701
27.7553
25.0695
22.297
19.3493
16.0577
11.5345
6.27333
2.86237
1.56735
1.55441
2.20624
3.65753
5.97104
9.08129
13.222
18.5873
24.7634
32.1071
41.3817
50.133
57.8116
64.2804
69.4393
73.5702
75.1236
74.2239
70.8644
65.612
58.9243
50.9401
40.7162
27.8162
11.0172
-10.7337
-38.0991
-71.2678
-110.877
-160.345
-230.32
-349.217
-636.494
)
;
    }
    upperWall
    {
        type            calculated;
        value           nonuniform List<scalar> 
245
(
-727.539
45.6757
1389.41
1367.48
552.313
-3123.93
-2244.49
-75.2703
1715.49
2559.08
2413.87
1539.06
-3311.11
-4893.87
-3016.47
-239.157
2288.57
4022.55
4679.71
4093.26
1940.1
-5495.83
-6479.2
-5554.85
-3481.68
-945.335
1553.66
3747.34
5536.85
6431.36
5449.88
2751.05
-257.515
-2738.15
-4380.88
-5170.36
-5218.49
-4662.75
-3681.44
-2405.79
-1178.57
-56.2682
1083.95
2157.21
3072.94
3739.62
4069.33
3995.53
3493.21
2588.89
1377.16
28.7076
-1239.88
-2214.51
-2733.55
-2725.99
-2224.49
-1352.47
-297.689
712.496
1441.36
1704.36
1449.55
799.826
8.95601
-640.227
-939.036
-822.636
-399.428
92.8908
407.495
424.256
215.759
-24.5309
-138.547
-110.963
-37.5217
-0.773432
1.42643
8.55181
24.7507
23.8274
-0.141545
-20.9014
-15.5614
2.88595
7.4442
0.183665
-5.03958
-4.06447
-1.94812
-1.59455
-3.11064
-4.87701
-5.3822
-5.74061
-6.70657
-8.09973
-9.55701
-10.9904
-12.5374
-14.3006
-16.2552
-18.3971
-20.6075
-22.9837
-25.5078
-28.2011
-31.044
-34.0119
-37.0807
-40.2535
-43.5199
-46.8574
-50.2375
-53.645
-57.0398
-60.3954
-63.6783
-66.8465
-69.8668
-72.6843
-75.2625
-77.5366
-79.4564
-80.9526
-81.9595
-82.4191
-82.2596
-81.4038
-79.7774
-77.3074
-73.9293
-69.5661
-64.1468
-57.5977
-49.8677
-40.8946
-30.6359
-19.0644
-6.13688
8.15496
23.8253
40.8692
59.2533
78.9368
99.8537
121.912
144.999
168.971
193.658
218.861
244.364
269.939
295.288
320.118
344.116
366.91
388.193
407.655
424.979
439.841
451.982
461.154
466.83
469.166
468.838
463.99
453.132
442.399
436.162
422.676
388.055
329.009
255.828
190.993
144.248
114.337
96.5303
86.5383
80.9988
77.2364
73.2005
67.4165
59.089
48.3129
36.09
23.9742
13.4817
6.23824
1.08573
-2.0635
-1.68119
0.295771
3.80617
8.33879
13.0724
19.1824
23.9556
28.3618
31.7662
33.9929
34.742
34.081
31.9992
28.3133
22.7631
15.1209
6.33301
-15.8207
-45.9937
-70.9781
-90.1275
-102.303
-105.282
-101.885
-104.732
-105.251
-103.237
-96.9443
-96.7006
-93.8957
-84.3658
-72.6723
-56.0885
-37.985
-17.4052
3.50831
23.0871
37.9662
59.3738
57.6391
42.9344
15.9824
-28.7208
-80.7034
-165.859
-256.161
-393.28
-515.676
-643.994
-716.1
-782.57
-814.451
-636.494
)
;
    }
    lowerWall
    {
        type            calculated;
        value           nonuniform List<scalar> 
272
(
274.244
-1627.81
-1338.32
996.031
2379.05
2273.41
1385.27
-4022.64
-5520.35
-1340.9
2600.61
4923.34
5135.79
3499.27
-4030.43
-8777.52
-6124.12
-1669.34
2735.2
6008.19
7343.05
6137.06
851.187
-3914.75
-5889.5
-5936.86
-4628.84
-2455.76
-10.3785
2182.85
3681.7
4279.19
4046.68
3143.89
1985.08
656.543
-395.408
-1375.3
-2006.95
-2116.79
-2.33667
-2.33921
-2.34788
-2.36879
-2.41484
-2.50725
-2.68301
-3.04761
-3.7135
-4.81011
-6.38695
-8.3982
-10.7311
-13.1791
-15.3653
-16.8796
-17.4713
-17.2282
-16.1432
-15.102
-15.5116
-15.5846
-15.2694
-14.6907
-5.73795
-29.1768
-614.165
-2.33667
-2.34872
-2.3749
-2.41693
-2.47679
-2.55588
-2.65415
-2.76885
-2.90996
-3.09223
-3.30239
-3.53972
-3.80485
-4.09707
-4.41559
-4.75967
-5.12847
-5.52077
-5.93506
-6.36942
-6.82149
-7.28832
-7.76647
-8.25156
-8.73847
-9.22052
-9.69636
-10.1488
-10.5856
-11.0447
-11.2728
-11.5849
-11.9149
-12.0354
-12.094
-12.0336
-11.8503
-11.5218
-11.0453
-10.4193
-9.61984
-9.07386
-8.02698
-6.33018
-4.39902
-2.13703
-0.113229
2.54766
6.18784
9.08328
10.073
9.33771
7.23254
4.7934
4.76398
9.33586
15.7258
18.8958
17.3988
12.0364
3.80787
-6.1377
-16.7904
-27.436
-37.609
-47.1101
-55.8253
-63.7697
-70.9715
-77.522
-83.5049
-88.9988
-94.0875
-98.8509
-103.382
-107.896
-112.507
-118.058
-123.512
-129.101
-134.808
-140.629
-146.563
-152.601
-158.73
-164.93
-171.174
-177.433
-183.668
-189.838
-195.892
-201.776
-207.431
-212.792
-217.796
-222.378
-226.47
-229.996
-232.886
-235.1
-236.552
-237.115
-237.352
-235.289
-233.054
-231.655
-226.713
-221.78
-215.641
-208.934
-201.175
-192.967
-183.901
-174.008
-163.847
-153.635
-143.035
-132.396
-121.743
-111.524
-101.858
-91.5512
-82.6085
-73.489
-64.6387
-55.6378
-46.0964
-34.3409
-20.9428
-4.72758
15.4573
35.4974
59.061
77.1513
93.5073
105.93
114.867
122.527
129.258
121.848
100.523
19.7936
18.6104
11.2983
-2.20146
-23.9609
-52.0003
-81.1771
-113.999
-146.021
-182.551
-226.779
-264.587
-307.435
-355.39
-401.863
-435.827
-466.838
-497.373
-524.701
-548.579
-568.504
-584.316
-595.36
-601.479
-603.401
-598.708
-590.467
-579.842
-559.921
-538.379
-518.903
-478.458
-453.743
-418.737
-362.96
-326.077
-283.477
-242.072
-181.849
-117.424
-94.8715
-49.0539
12.8593
79.1434
142.21
245.819
348.222
417.576
521.43
614.69
732.075
830.807
900.269
960.276
1013.52
1046.42
915.517
715.317
488.225
370.045
246.28
112.863
39.0827
-168.09
)
;
    }
    frontAndBack
    {
        type            empty;
    }
}


// ************************************************************************* //
