/*--------------------------------*- C++ -*----------------------------------*\
| =========                 |                                                 |
| \\      /  F ield         | OpenFOAM: The Open Source CFD Toolbox           |
|  \\    /   O peration     | Version:  2112                                  |
|   \\  /    A nd           | Website:  www.openfoam.com                      |
|    \\/     M anipulation  |                                                 |
\*---------------------------------------------------------------------------*/
FoamFile
{
    version     2.0;
    format      ascii;
    arch        "LSB;label=32;scalar=64";
    class       volScalarField;
    location    "0.03";
    object      ddt0(k);
}
// * * * * * * * * * * * * * * * * * * * * * * * * * * * * * * * * * * * * * //

dimensions      [0 2 -3 0 0 0 0];

internalField   nonuniform List<scalar> 
12225
(
0.00211439
-0.00216841
0.000766236
-0.0148407
-0.0147401
-0.0612027
-0.0984997
-0.0889087
-0.180798
-0.226594
-0.325313
-0.410567
-0.518947
-0.683109
-0.869283
-0.892787
-1.35241
-1.73383
0.00161606
-0.00407193
0.00753682
-0.00146741
0.0600952
-0.0420962
-0.603292
0.88784
-0.347324
0.172281
0.317441
0.144846
0.165565
-0.0558323
2.13247
-2.25922
0.306079
3.03301
0.000260601
-0.000669427
-0.00161774
-0.00423583
-0.00345488
-0.00635152
0.0216557
-0.0190464
-0.00493643
0.0269763
-0.0545217
0.0518533
0.00198499
-0.0372679
0.0316052
0.185245
0.850994
-1.22608
4.29425e-05
-0.000467071
-0.00191644
-0.00482498
-0.00562681
0.00230777
0.0013776
-0.0249684
0.00058072
-0.00643692
-0.0443732
-0.0132655
-0.00567994
-0.100617
-0.0193351
0.155758
-0.313493
-0.260072
-1.67587e-05
-0.000551882
-0.00188266
-0.00474236
-0.00485724
-0.00180836
-0.00632889
-0.0156335
-0.00805296
-0.0128493
-0.0272769
-0.0218154
-0.0174725
-0.0567234
-0.0301717
0.0267301
-0.1292
-0.1343
-2.09552e-05
-0.000636983
-0.0019683
-0.00462837
-0.00517656
-0.00518741
-0.00904943
-0.0135584
-0.0127832
-0.0164497
-0.0229993
-0.0238974
-0.0237408
-0.03902
-0.0359327
-0.00472688
-0.0564795
-0.0928749
1.39108e-05
-0.000672105
-0.00207963
-0.00461163
-0.00583627
-0.00732367
-0.0106707
-0.0140182
-0.0157145
-0.0190624
-0.0232082
-0.0256511
-0.027154
-0.0343769
-0.0339205
-0.0190917
-0.0439035
-0.0554731
6.77973e-05
-0.00064797
-0.00215671
-0.00461482
-0.00643942
-0.00868592
-0.0118851
-0.0150784
-0.0177792
-0.0210887
-0.0245344
-0.027282
-0.0293431
-0.0330437
-0.0321224
-0.0266482
-0.0368235
-0.0328933
0.000117829
-0.000552662
-0.00213442
-0.00457074
-0.00684252
-0.00952585
-0.0127633
-0.0160584
-0.0192223
-0.0225635
-0.0257825
-0.02849
-0.0305156
-0.0323398
-0.0312592
-0.0285843
-0.0290287
-0.0219992
0.000197094
-0.000351695
-0.0019777
-0.00441888
-0.00698222
-0.00993155
-0.0132597
-0.0166808
-0.0200612
-0.0234069
-0.0264784
-0.0289874
-0.030675
-0.0313868
-0.0299936
-0.0270882
-0.0231073
-0.0151344
0.000363736
-0.000123363
-0.00172583
-0.00410249
-0.00681817
-0.00991335
-0.0133072
-0.0167963
-0.0202371
-0.0235085
-0.0263777
-0.0285649
-0.0297638
-0.0296518
-0.0276656
-0.0238322
-0.017908
-0.00928739
0.000468299
0.000153206
-0.00133541
-0.00362062
-0.00636212
-0.00948846
-0.012875
-0.0163373
-0.0197083
-0.0228089
-0.0253953
-0.0271801
-0.027842
-0.0270402
-0.0243912
-0.0197554
-0.0129496
-0.00399473
0.000535047
0.000440116
-0.00085073
-0.00297987
-0.00564748
-0.00870832
-0.0120033
-0.0153426
-0.0185332
-0.0213598
-0.0235661
-0.0248614
-0.0249296
-0.0234549
-0.0201466
-0.0148826
-0.00762626
0.00130419
0.000572338
0.000739048
-0.000237605
-0.00208424
-0.00452872
-0.00737313
-0.0104283
-0.0134828
-0.0163151
-0.0186831
-0.0203233
-0.0209566
-0.0202961
-0.0180866
-0.0141295
-0.00843565
-0.00110616
0.00716839
0.000576136
0.000996484
0.000431786
-0.000967921
-0.00297546
-0.00538177
-0.00795956
-0.0104799
-0.0126952
-0.0143459
-0.0151791
-0.0149578
-0.0134558
-0.0105223
-0.0060546
-0.000303489
0.00674645
0.0132587
0.00054219
0.00115121
0.00103523
0.000237591
-0.00108574
-0.00274098
-0.00450688
-0.00614204
-0.00738225
-0.00797179
-0.0077062
-0.00644394
-0.00404443
-0.000508134
0.00436998
0.00958395
0.0164309
0.0230809
0.000463764
0.00114994
0.0014373
0.0013282
0.000913182
0.000336668
-0.000216816
-0.000525146
-0.000348432
0.000534634
0.00222279
0.00469202
0.00817427
0.012232
0.0176167
0.0229802
0.0295101
0.0385309
0.000333
0.000968635
0.001564
0.00215079
0.00278793
0.00356556
0.00459911
0.00602848
0.00804633
0.0108086
0.0143729
0.0183814
0.0232369
0.0278104
0.0335633
0.0419671
0.0473492
0.0628398
0.000141109
0.000618933
0.00145787
0.00275413
0.00455533
0.00689391
0.00979864
0.0133202
0.0175715
0.0225138
0.028243
0.0331504
0.0392943
0.0472498
0.0535106
0.060761
0.0756748
0.0860682
-4.43978e-05
0.000321203
0.00142733
0.00338351
0.00620595
0.00989099
0.0144333
0.0198564
0.0259191
0.0327516
0.0389984
0.0464544
0.0546604
0.0637021
0.0731879
0.0836016
0.0951816
0.107276
-0.000168892
0.000232286
0.00164565
0.0040856
0.0075174
0.0119395
0.017387
0.0239392
0.0315181
0.039595
0.0480331
0.0551631
0.0633314
0.0721085
0.0815347
0.0916223
0.102354
0.113809
-0.000235031
0.00030111
0.00197533
0.00465578
0.00827044
0.0128402
0.0184324
0.0251671
0.0331257
0.0419828
0.0511224
0.0589281
0.0673905
0.0764767
0.0861919
0.0965173
0.107376
0.118729
-0.000241528
0.000438231
0.00221926
0.00485999
0.00828664
0.0125472
0.0177015
0.0238498
0.0310788
0.0392791
0.0480666
0.056649
0.0654586
0.0747387
0.0844942
0.0947215
0.105418
0.116584
-0.000185377
0.000539572
0.0022496
0.00464189
0.00763903
0.0113308
0.0157312
0.0209287
0.0269481
0.0337861
0.0412473
0.0490066
0.0570973
0.0655641
0.0743961
0.0835781
0.0931413
0.103135
-5.30696e-05
0.00049927
0.00203153
0.00407316
0.0064984
0.00951961
0.0130099
0.017167
0.0218559
0.0271908
0.0330763
0.0393835
0.0460422
0.053126
0.0605925
0.0681815
0.0761211
0.0846333
-1.34441e-05
0.000478459
0.00161427
0.00328678
0.00500945
0.00742254
0.00987043
0.0131435
0.0165269
0.0205235
0.0249856
0.0299148
0.0349838
0.040555
0.0474503
0.0530156
0.0589468
0.0667505
-1.04189e-05
0.000366628
0.00107412
0.00244578
0.00318442
0.00542437
0.00642074
0.00949086
0.0115098
0.0147262
0.0181843
0.0226143
0.0266328
0.0287598
0.0411533
0.0438168
0.0422458
0.0539885
-5.47933e-05
0.000215029
0.000325287
0.00157253
0.000481744
0.00384213
0.000989549
0.00556545
0.00380177
0.00697725
0.00717058
0.0107723
0.0173794
0.00334332
0.00805101
0.0847144
-0.0369711
0.0041948
-0.00044641
0.000562975
-0.00223323
-0.00357568
-0.00645052
-0.00578818
-0.0246684
-0.0177192
-0.0411805
-0.0374847
-0.0622218
-0.0632738
-0.0906885
0.442843
-1.41992
2.34525
-1.48401
-0.731713
-0.00248653
0.00267822
-0.00222255
0.00775659
0.00517613
0.0258084
0.0266339
0.0628327
0.0654524
0.122042
0.138919
0.201685
0.183668
0.285725
0.305673
0.421321
0.414744
0.483159
0.00264003
-0.0912408
-0.16198
-0.284557
-0.416689
-0.544647
-0.668696
-0.789125
-0.891682
-0.948176
-0.925889
-0.791936
-0.517249
-0.0789828
0.559722
1.44867
2.61536
3.77598
5.13797
6.63248
8.16376
9.60743
10.8075
11.7268
12.1306
12.6489
11.4536
10.0033
8.54763
5.90001
6.33289
6.53392
5.67831
5.51666
3.15253
-1.86543
-1.87715
0.143488
3.26407
31.5303
48.4954
31.2568
25.1275
19.0451
14.1338
10.189
6.6243
3.78226
0.964803
-1.44806
-4.4046
-4.82951
-4.40436
-9.35962
-8.8137
-11.3289
-11.0209
-13.0041
-13.3479
-14.4767
-14.4095
-15.1843
-16.0921
-16.0932
-16.9785
-16.4373
-17.422
-16.6701
-17.22
-16.7341
-16.606
-16.5489
-15.8954
-15.9424
-15.294
-15.1533
-14.6321
-14.5557
-14.1982
-13.9723
-13.9787
-13.8096
-14.2248
-14.5656
-15.1793
-16.6979
-16.333
-16.0078
-15.2161
-13.9407
-11.6959
-9.09464
-6.07417
-1.80043
0.330652
2.8625
4.95552
4.4353
-1.39703
-13.8961
-13.275
-6.72238
2.95016
6.08263
9.16042
11.6493
14.7887
18.3145
21.1161
22.8796
24.1869
25.5825
26.9239
27.467
27.8158
28.3013
28.6721
28.8063
28.8266
28.1868
27.3893
26.2978
24.8302
22.9305
20.6581
18.1064
15.3482
12.5053
9.66447
6.87115
4.19978
1.68778
-0.625816
-2.6877
-4.4692
-5.7328
-6.25117
-7.37756
-7.51696
-7.29964
-6.78811
-5.92952
-5.29943
-3.39213
-1.07041
0.653347
2.25454
3.40792
4.03188
4.08707
3.63479
2.85425
1.90498
0.878002
-0.157796
-1.17943
-2.21026
-3.22702
-4.10489
-4.57151
-4.6613
-4.74844
-4.96077
-5.45067
-5.46632
-5.42827
-5.32587
-5.15394
-5.00659
-4.89375
-4.76095
-4.66745
-4.44418
-4.2072
-4.15298
-4.0529
-4.00204
-3.88409
-3.82091
-3.7831
0.0427756
-0.411792
-0.643304
-0.739171
-0.806434
-0.82631
-0.773309
-0.623618
-0.327642
0.178967
0.879416
1.84086
3.20779
5.13318
7.84737
11.4092
15.3272
18.6298
22.4238
25.9757
28.8717
30.7293
31.2714
30.5062
27.677
22.8328
14.3313
4.82387
-4.51207
-15.4596
-35.1683
-38.771
-46.3064
-49.3055
-48.5985
-91.8961
-42.6547
22.406
27.3353
17.7156
17.506
15.1022
16.7595
17.4998
23.2909
20.7868
25.1295
25.5572
28.1985
29.4175
30.7322
31.4863
32.0494
31.8143
31.2061
30.9489
29.8778
26.5891
24.0264
24.0186
21.0568
17.8448
14.8863
13.553
8.40067
8.32516
4.61631
3.08192
1.36073
-0.637467
-1.60007
-3.70639
-4.66612
-6.06928
-7.08108
-8.09549
-9.10377
-10.0433
-10.8436
-11.7252
-13.0041
-13.2994
-13.9108
-15.2822
-15.4543
-16.0806
-17.6972
-19.7265
-22.0781
-24.4998
-28.5545
-25.7103
-25.8018
-22.7979
-26.8748
-29.0233
-29.0166
-27.1659
-22.0867
-17.7829
-12.0867
-4.96274
4.66025
12.3006
16.88
21.1456
27.2916
31.3677
35.1486
36.3784
36.7461
36.4932
36.1291
36.2837
36.1937
35.2384
33.9492
32.4177
30.7343
30.0715
29.1854
28.0899
26.7957
25.2336
23.3857
21.3821
19.1871
16.8016
14.2439
11.5736
8.85498
6.1748
3.70539
1.61383
-0.067899
-1.42971
-2.55664
-3.12981
-2.93722
-1.83516
0.0536874
2.14501
3.98355
5.97554
9.00607
12.5829
14.6479
15.0768
14.592
13.3735
11.1178
8.27406
5.83057
4.11385
2.7235
1.24663
-0.438265
-1.84349
-2.49494
-2.76361
-3.0523
-3.10192
-3.09918
-2.9663
-2.79472
-2.47923
-2.26747
-1.894
-1.72222
-1.41171
-1.25738
-1.1194
-0.978358
-0.898258
-0.87798
-0.876824
-0.908793
-0.920021
-0.991517
-1.32102
0.0556691
-0.861782
-1.5878
-1.96358
-2.13869
-2.11709
-1.92234
-1.57192
-1.03389
-0.194955
1.12138
3.09917
5.93369
9.81875
14.8421
20.6646
26.4001
32.0056
37.2777
40.9656
42.4426
41.7834
39.4192
36.0664
31.1739
24.2162
14.2228
4.35194
-9.97818
-26.1297
-39.8299
-34.8919
-32.5023
-41.2575
-21.3158
11.8312
37.1053
28.9261
23.243
27.9628
33.7644
39.2583
46.184
56.118
66.0208
67.1467
71.708
70.1759
69.8905
67.4964
65.2145
62.5369
59.7822
56.6324
54.1064
51.3725
48.7609
46.0933
43.8593
41.0674
39.8631
37.5346
32.8451
31.9532
27.4922
27.0634
24.9604
23.7009
23.2041
22.7957
23.3277
23.2834
23.8686
24.4438
25.2975
26.2616
27.2952
28.394
29.5091
30.6059
31.6021
32.5179
33.2524
33.8382
34.3033
34.441
34.4467
34.2262
33.7784
33.0262
32.35
27.7632
18.8856
16.1504
7.54479
-6.60235
-16.4906
-24.3226
-25.2514
-26.3448
-26.728
-24.4489
-20.4737
-15.1426
-9.49948
-3.38723
7.40941
12.8372
12.1622
14.2812
16.7532
18.5184
19.6788
21.3481
22.0856
22.4406
23.0448
23.4613
23.2977
23.0765
22.9743
22.8859
22.767
22.5868
22.3082
21.8923
21.2924
20.4561
19.3304
17.8741
16.0618
13.8975
11.4547
8.86671
6.28057
3.84495
1.76906
0.333324
-0.216668
0.257296
1.67531
3.75491
6.28782
9.24143
12.4768
15.5746
18.2265
20.0636
20.7911
20.1762
18.2144
15.3374
12.2334
9.3412
6.74155
4.34696
2.17413
0.463115
-0.664415
-1.36714
-1.74177
-1.85125
-1.75475
-1.50976
-1.15053
-0.717157
-0.240485
0.231688
0.666576
1.0228
1.30564
1.51183
1.66685
1.69023
1.71373
1.57043
1.39183
1.28143
0.852248
0.599618
0.0419498
-1.38651
-2.35189
-2.88182
-3.16079
-3.18279
-2.94279
-2.4242
-1.55629
-0.201583
1.83464
4.82702
8.99343
14.4713
21.1606
28.5618
35.8535
42.2129
46.8275
48.2141
45.9668
41.54
37.1366
35.105
36.8858
42.6122
52.2115
61.457
78.3228
88.7567
85.0274
87.7213
86.2776
58.2522
54.1242
39.6218
44.0121
35.4863
42.304
61.7247
64.6891
80.0589
83.481
84.4674
77.8628
79.623
76.1036
73.1395
69.9846
66.6184
63.7495
60.9764
58.4001
55.9713
53.8102
51.5601
49.3764
47.0381
44.6305
42.0985
39.5413
36.4388
33.2686
30.9321
29.6465
26.501
26.3895
25.488
25.8507
26.5601
27.935
30.1305
32.7261
35.7744
39.0832
42.7356
46.5373
50.5651
54.6399
58.7284
62.726
66.5545
70.1864
73.6177
76.7889
79.5526
81.9637
83.8138
85.0066
85.1932
84.1362
81.1045
77.2674
70.6148
70.4656
70.8605
54.0625
37.4149
9.88505
-12.3988
-29.1524
-40.096
-45.573
-46.9722
-46.9245
-44.1476
-36.77
-23.3791
-13.9903
-8.26438
-3.27503
-0.276039
1.81038
1.93236
2.48154
3.69548
5.18505
6.97811
8.51348
9.91667
11.1261
12.2764
13.4971
14.7954
16.1503
17.5196
18.8356
19.9996
20.8845
21.3475
21.2516
20.4937
19.0519
17.0052
14.5158
11.8079
9.1664
6.92147
5.39312
4.80007
5.19095
6.45392
8.41036
10.8499
13.5083
16.069
18.2128
19.6836
20.2634
19.878
18.483
16.3224
13.7999
11.2238
8.74646
6.45576
4.47529
2.87754
1.67695
0.849594
0.342859
0.0988812
0.0741589
0.228696
0.525377
0.902401
1.32105
1.74087
2.14855
2.51001
2.81286
3.00115
3.13505
3.11503
3.08348
2.84926
2.63361
2.30864
1.91814
1.53825
-0.234465
-1.731
-2.78668
-3.38319
-3.67535
-3.65576
-3.29852
-2.55355
-1.32273
0.55637
3.30722
7.16825
12.3103
18.759
26.2103
34.2628
41.9139
47.6271
49.9499
48.0777
42.4093
36.6306
36.3854
45.2402
61.7338
76.9496
86.3221
94.2008
105.146
103.505
85.1858
73.6249
57.3032
41.1878
40.9301
37.5705
39.0239
48.6794
64.4357
69.8682
76.6993
81.478
81.9083
80.9397
78.5586
76.8834
73.2466
69.7413
66.2949
62.9912
60.0641
57.4118
55.0841
53.011
51.1152
49.2367
47.2319
44.9513
42.3742
39.6004
36.7961
34.0919
29.4497
27.2365
25.3969
21.3954
20.8039
19.5427
19.2296
19.5277
20.5522
22.2952
24.7568
27.9877
32.0123
36.5899
41.638
47.1254
52.932
58.9926
65.2043
71.4842
77.7649
83.9088
89.2785
94.9682
100.423
105.555
110.828
115.683
119.906
122.685
122.664
118.515
109.299
97.8764
93.6075
76.733
56.9457
34.3734
10.5627
-11.9719
-29.7519
-36.1637
-45.9497
-51.4522
-55.2741
-51.3644
-44.0944
-37.8558
-26.7057
-23.4546
-20.0809
-16.9563
-14.2972
-12.389
-10.8514
-9.96615
-8.35953
-6.30077
-3.96124
-1.80236
0.483558
2.99084
5.72428
8.66082
11.7547
14.9029
17.9308
20.6129
22.7033
23.9827
24.3105
23.6631
22.1409
19.9549
17.4086
14.8616
12.6865
11.1935
10.5504
10.7596
11.6985
13.1581
14.859
16.4906
17.7864
18.5582
18.6769
18.0889
16.8594
15.1303
13.1183
11.0381
9.05448
7.25795
5.69262
4.4008
3.40002
2.68071
2.21326
1.96018
1.89127
1.98105
2.19996
2.50208
2.84936
3.20004
3.5341
3.82405
4.06007
4.18985
4.2583
4.18844
4.0852
3.78402
3.53496
3.06225
2.75971
2.09266
-0.822413
-1.78446
-2.82627
-3.41907
-3.67074
-3.56298
-3.05049
-2.06357
-0.489106
1.83356
5.09878
9.47248
14.9664
21.6613
29.637
38.7723
46.8902
52.1716
53.1708
48.4247
35.1889
29.6848
30.0099
40.3203
57.5167
69.4244
68.4184
61.4908
47.912
36.5271
33.3486
30.1379
32.3031
27.9493
29.4119
29.0286
37.3312
56.2537
63.1226
69.0768
73.87
76.1309
76.6282
76.2102
74.8816
72.9047
70.0235
67.0494
64.0168
61.1778
58.6659
56.4931
54.6668
53.1301
51.7846
50.4439
48.8943
46.9718
44.6475
42.0681
39.6757
34.8048
32.5738
30.4211
26.1651
23.4827
21.9255
20.6938
19.9196
19.6898
20.0906
21.112
22.7588
25.0355
27.9568
31.5808
35.7657
40.4496
45.5835
51.0891
56.9202
63.0971
69.7578
77.0537
84.2903
91.3514
98.5845
105.546
112.572
120.608
129.262
138.122
145.347
146.125
143.363
135.955
118.422
99.8894
77.5135
53.8826
30.4375
7.98564
-11.9282
-26.2003
-31.8847
-34.3413
-44.4705
-51.6431
-52.9137
-46.9383
-40.6846
-38.5415
-34.2797
-30.9905
-28.7818
-27.0296
-25.4528
-23.7124
-22.1053
-20.475
-18.7387
-16.4868
-13.9202
-10.8722
-7.39437
-3.50232
0.824549
5.54
10.4509
15.2757
19.6847
23.3389
25.9607
27.3888
27.6093
26.7568
25.0976
22.9837
20.7944
18.8773
17.4758
16.6859
16.4681
16.6775
17.0929
17.4647
17.5939
17.3618
16.7261
15.7202
14.4189
12.9198
11.3417
9.80803
8.41038
7.17983
6.11974
5.23925
4.54915
4.04943
3.72588
3.55621
3.52093
3.6081
3.80317
4.07053
4.36766
4.6605
4.93671
5.16109
5.31846
5.38248
5.3744
5.23829
5.05993
4.69765
4.38333
3.84068
3.49097
2.69219
-0.908192
-1.53029
-2.48001
-3.01983
-3.20266
-3.00254
-2.35853
-1.19344
0.594851
3.13898
6.52567
10.6341
15.8389
23.2663
32.6221
41.7962
50.4553
56.9415
58.1399
52.5026
29.0554
16.2793
12.8253
16.0949
30.5299
46.2769
45.1062
33.3883
28.1555
18.2388
16.5613
12.0405
8.10197
1.61493
18.8254
29.3453
46.352
54.6934
61.0596
65.7679
69.5002
71.7397
72.9151
73.2941
72.824
71.7108
70.0013
68.0268
65.957
63.9449
62.2372
60.5505
59.2207
58.1336
57.166
56.103
54.7007
52.8038
50.3946
47.7352
44.6317
42.505
37.7799
33.8487
31.0062
28.0377
25.6192
23.0535
22.0749
21.4339
21.3938
21.934
23.0588
24.7577
26.9741
29.5621
32.9853
36.9837
41.5221
46.5123
51.8911
57.5807
63.4896
69.78
76.7604
83.9375
91.7709
101.303
111.254
121.516
133.017
145.178
159.24
165.645
165.788
147.925
138.494
117.674
91.6151
64.1284
38.4993
15.9271
-3.36831
-17.957
-24.3223
-26.4661
-35.2421
-41.8285
-46.291
-46.9601
-43.0184
-40.7227
-38.6064
-36.3461
-35.4615
-34.4383
-33.4309
-32.6964
-31.8833
-31.0436
-29.9208
-28.5795
-26.7415
-23.9951
-20.7049
-16.8366
-12.2578
-6.82651
-0.741179
5.66038
12.0433
17.9777
23.0475
26.9368
29.4875
30.7153
30.7934
30.0066
28.6862
27.1375
25.5837
24.1517
22.8807
21.7318
20.6073
19.3871
17.9881
16.4053
14.7111
13.0233
11.4439
10.0363
8.83236
7.84277
7.05917
6.44009
5.93628
5.52568
5.21229
5.00321
4.89626
4.88044
4.94283
5.08223
5.30291
5.57819
5.86152
6.12281
6.35427
6.52652
6.62176
6.62207
6.54247
6.33666
6.08354
5.66763
5.2845
4.68718
4.27995
3.41397
-0.868302
-1.02969
-1.82539
-2.29562
-2.41498
-2.15337
-1.448
-0.227894
1.57987
4.03632
7.03356
10.7499
16.4185
24.6885
33.6273
42.8786
53.1305
61.3086
63.8116
57.6879
41.5004
12.7867
-1.29765
-6.82618
-7.57666
-5.31981
-0.568511
5.12522
1.74329
-6.4173
-19.4526
-15.2799
-7.91633
16.2619
28.4693
40.4229
51.1492
57.5169
62.9667
66.7373
70.1243
72.7105
74.4206
75.5141
76.0942
76.1728
75.9284
75.1366
74.2582
73.4663
73.3921
71.7666
70.6058
69.4357
68.2412
66.7942
64.8821
62.3484
58.3318
57.5761
52.8128
47.2104
43.2957
39.6128
35.253
32.5648
30.3344
28.7312
27.0618
25.7621
24.8094
24.2793
24.2593
24.8495
26.1578
28.3089
31.062
34.4996
38.5574
43.1413
48.2058
53.6346
59.0876
64.5714
69.6741
77.0231
85.244
94.7329
105.777
118.91
134.215
151.105
169.586
183.489
176.561
172.491
153.31
126.667
95.9704
64.7548
37.2591
15.6243
-0.407587
-11.8256
-17.3607
-19.5881
-27.7837
-33.1826
-36.7154
-39.4712
-40.0776
-37.8216
-36.5904
-35.6114
-35.1654
-35.1295
-35.2559
-35.4921
-35.6629
-36.0233
-36.067
-35.9766
-35.4754
-33.6474
-31.5093
-28.6608
-25.0176
-20.0393
-13.6747
-6.82068
0.652013
8.20763
15.3149
21.542
26.5855
30.3314
32.8404
34.2947
34.9034
34.8229
34.1215
32.8192
30.9504
28.5853
25.8085
22.709
19.405
16.0698
12.9298
10.2192
8.0951
6.59551
5.67352
5.21319
5.06724
5.09378
5.18731
5.29348
5.40988
5.54938
5.71891
5.9162
6.13254
6.37151
6.66144
6.99154
7.30254
7.55874
7.76447
7.90355
7.95131
7.89588
7.75356
7.49122
7.16752
6.70402
6.25414
5.61619
5.11989
4.35638
-0.678853
-0.190685
-0.965356
-1.39358
-1.47989
-1.20969
-0.526859
0.625064
2.28624
4.4363
6.92334
10.4229
16.1939
24.1248
32.7848
42.6026
54.4413
64.8686
69.9416
66.8388
53.2269
32.6956
8.46672
-7.42492
-16.1461
-20.0974
-23.8115
-33.9614
-32.5284
-22.4902
-4.11406
7.47049
22.0219
37.7761
48.6092
58.4305
65.6708
69.6632
71.5559
73.8046
77.5832
80.1587
82.3452
84.2465
85.9022
87.353
88.5016
87.2949
86.0587
84.5275
82.8349
81.4102
80.0786
78.7936
77.4267
75.784
73.6561
70.2568
68.0801
62.9261
58.479
53.9311
49.8295
45.6734
43.1451
40.6095
38.479
36.5923
34.8091
33.081
31.4091
29.8743
28.5985
27.7138
27.3365
27.5781
28.5171
30.2527
32.7733
35.9725
39.8662
44.5226
49.9427
56.6441
63.7327
71.4663
80.2176
88.0669
100.777
116.195
134.529
155.224
174.846
189.083
199.316
186.284
161.457
129.738
94.5428
60.1287
31.029
9.90296
-3.72635
-10.6386
-12.7103
-16.694
-22.8061
-25.7524
-28.3181
-30.6138
-32.6206
-33.3864
-32.2357
-31.6494
-31.6371
-31.9465
-32.6254
-33.5076
-34.5329
-35.7507
-36.9004
-38.0603
-39.0318
-38.9784
-38.4181
-36.0017
-34.5872
-31.8997
-25.0882
-19.8175
-12.7225
-4.54175
3.55941
11.4118
18.5103
24.6603
29.8101
34.0706
37.5433
40.1765
41.7208
41.8532
40.3808
37.3591
33.0726
27.9314
22.379
16.8589
11.8074
7.63032
4.59369
2.71389
1.88308
1.90143
2.42676
3.12086
3.83731
4.50053
5.09553
5.64004
6.14366
6.61056
7.03608
7.41928
7.81546
8.25381
8.63853
8.91624
9.11372
9.24319
9.26379
9.1676
8.97812
8.66946
8.28873
7.78401
7.27402
6.60679
6.04103
5.27237
-0.456979
0.402208
0.0445874
-0.430505
-0.542123
-0.321288
0.266613
1.26822
2.70027
4.50385
6.54901
9.6596
14.9224
22.2419
30.3847
39.945
52.6117
65.9718
75.1984
76.1745
69.2505
52.5413
31.1908
11.4738
-1.99727
-8.14837
-10.5419
-10.2586
-3.70222
7.51252
19.1548
30.9174
42.337
56.3788
66.7821
75.3985
81.628
85.5545
88.1501
90.9465
94.0072
96.5829
98.8015
100.633
101.869
102.26
101.615
100.099
98.2144
96.1595
94.2637
92.5369
90.8872
89.1466
87.1308
84.6395
81.0649
78.4152
72.8598
67.6002
62.7556
58.3563
54.5922
51.6896
48.969
46.6204
44.5685
42.6245
40.5976
38.3699
35.9225
33.3538
30.8552
28.6316
26.8575
25.6883
25.2146
25.5911
26.9215
29.1088
32.056
35.7471
40.1124
45.0249
50.8879
58.6634
69.0265
82.4976
97.1927
114.483
134.881
157.672
189.282
212.157
211.122
191.466
159.876
122.347
83.1001
47.4401
19.8263
2.40591
-7.02245
-9.22853
-11.8789
-16.8732
-17.9375
-19.5291
-21.3006
-23.0786
-24.8956
-26.5991
-27.5496
-27.6435
-27.3178
-27.7395
-28.4578
-29.4891
-30.8312
-32.4394
-34.1992
-36.0967
-37.8652
-39.2795
-40.4859
-40.8538
-40.1484
-38.1212
-33.8429
-31.319
-27.1111
-16.883
-10.3274
-1.92592
6.07616
13.8513
21.155
28.1184
34.8378
41.1348
46.3934
49.6893
50.2293
47.74
42.577
35.5272
27.5099
19.3947
11.9248
5.73612
1.30722
-1.33279
-2.46618
-2.14737
-0.870789
0.513535
1.81289
3.05887
4.1671
5.17253
6.07076
6.86659
7.55932
8.13517
8.66348
9.27731
9.78383
10.1052
10.3034
10.456
10.4777
10.3604
10.1454
9.80883
9.38957
8.85763
8.30525
7.62009
7.00549
6.21274
-0.22663
1.01397
0.657719
0.436369
0.299481
0.414328
0.863039
1.67133
2.84278
4.32476
5.96302
8.48078
12.8665
19.279
26.4487
34.4418
45.9989
60.1293
73.842
81.9517
81.5517
74.8266
58.5109
38.5125
21.1775
10.6314
7.2872
8.93973
16.8076
28.6228
39.9883
50.6681
60.2407
70.4467
82.7153
91.9086
98.8967
104.343
109.829
113.504
116.669
119.095
120.8
121.785
121.963
121.221
119.723
117.681
115.246
112.56
109.719
106.8
103.766
100.547
97.1304
92.3889
87.4634
83.389
77.0952
71.5145
66.5108
62.1597
58.5007
55.4468
52.8346
50.5619
48.4704
46.3377
43.9311
41.1017
37.8057
34.1237
30.3365
26.7289
23.545
20.972
19.1464
18.192
18.3375
19.6143
21.9093
25.238
29.4704
34.2439
39.8627
48.0015
59.6412
74.4471
92.6786
114.6
140.967
172.263
205.449
225.497
217.113
187.557
147.877
105.672
64.7826
30.553
6.98525
-5.89201
-8.46509
-11.346
-15.3702
-14.8332
-14.7647
-15.1221
-16
-17.2921
-18.7831
-20.3415
-21.8893
-23.0931
-23.7994
-23.842
-24.4613
-25.3764
-26.6181
-28.1923
-30.0505
-32.1396
-34.3037
-36.434
-38.4074
-39.9833
-41.2639
-41.6913
-40.1062
-37.9948
-34.2775
-29.3742
-25.7719
-15.9035
-8.85363
-0.670864
7.61481
16.3538
25.8623
35.9831
45.9599
54.1679
58.8056
58.7396
54.0149
45.6975
35.307
24.3421
14.0047
5.21196
-1.24689
-4.92268
-7.05707
-6.83204
-4.98221
-2.54636
-0.979994
0.855147
2.476
3.99292
5.35019
6.53476
7.55334
8.382
9.06621
9.93657
10.6014
10.9753
11.1706
11.4014
11.4596
11.3397
11.1313
10.7974
10.3683
9.83275
9.26671
8.58038
7.94979
7.14629
0.109499
2.28974
1.41296
0.873978
0.704159
0.858771
1.2027
1.80711
2.71091
3.90024
5.30877
7.00894
10.1037
15.5226
22.0235
29.8604
40.4097
53.9138
68.6775
80.5659
85.2171
82.2906
77.8549
67.865
54.4325
38.9301
29.3383
25.9576
28.9678
38.4022
50.2905
62.3448
73.0742
81.9261
88.9688
98.9033
107.149
113.839
116.82
121.071
124.987
127.937
129.894
130.916
131.012
130.174
128.568
126.404
123.775
120.761
117.378
113.67
109.626
105.183
100.27
94.8339
89.4205
84.024
78.3311
73.1319
68.4064
64.3419
60.9105
57.9245
55.2467
52.7602
50.3101
47.6845
44.6491
41.0531
36.8529
32.0712
27.0925
22.2645
17.9257
14.1839
11.3243
9.3736
8.50952
8.98583
10.6078
14.1733
18.6088
24.1914
30.0137
38.8953
53.209
71.759
94.8036
121.839
153.302
188.638
223.145
238.191
212.919
169.146
122.469
78.3695
39.8241
11.3308
-5.03537
-8.03637
-11.5294
-15.3962
-13.89
-12.8094
-12.1021
-11.9357
-12.2965
-13.1451
-14.3597
-15.6819
-17.0709
-18.5426
-19.8773
-20.8143
-21.2105
-21.9052
-22.9972
-24.3416
-25.9799
-27.8882
-29.9952
-32.2261
-34.4808
-36.6626
-38.7127
-40.2447
-41.2578
-41.7526
-40.0133
-37.1422
-33.9463
-28.5014
-25.3177
-17.062
-8.85117
-0.0957218
11.1414
24.0805
38.7937
53.0609
63.8755
68.6301
66.4012
58.1559
45.9914
32.2371
18.79
6.92648
-2.29133
-7.53755
-10.8321
-12.0219
-10.0674
-7.83708
-5.74052
-3.29686
-0.805442
1.42306
3.53506
5.35123
6.91696
8.22547
9.25371
10.1634
10.8554
11.2803
11.4834
11.8923
12.0072
11.8944
11.7412
11.4554
11.0579
10.5562
10.0179
9.36397
8.7532
7.97881
0.194931
3.1282
2.42464
1.57546
1.10417
0.999492
1.21274
1.68553
2.40348
3.35108
4.46867
5.82136
8.29804
12.7696
18.7458
24.9006
32.061
42.9448
57.0166
72.6855
85.0721
88.3627
83.5203
77.3812
67.4864
62.3747
55.1109
49.8108
47.8275
49.9578
55.8018
64.1804
73.8102
83.3716
91.2841
99.1873
107.446
115.394
122.257
128.034
133.425
140.49
144.093
145.688
145.955
145.184
143.509
141.038
137.738
133.655
128.838
123.382
117.37
110.867
103.963
97.3644
92.5343
85.4408
79.7409
74.4915
69.7902
65.7888
62.2909
59.0026
55.8184
52.6594
49.4161
45.9048
41.9638
37.4615
32.3536
26.5387
20.5505
14.811
9.70901
5.28188
1.7199
-0.518498
-2.12895
-1.98713
-0.805289
4.5066
9.04187
16.9052
23.0542
33.122
52.1074
75.3993
105.085
137.776
173.901
213.213
243.031
239.575
185.914
132.755
85.8579
45.4196
14.8282
-4.78199
-8.69091
-12.2201
-15.7597
-13.7639
-12.0598
-10.7285
-9.92075
-9.64031
-9.78227
-10.3476
-11.2761
-12.3737
-13.5863
-14.9116
-16.2686
-17.6044
-18.6024
-19.5797
-20.2747
-21.331
-22.7143
-24.2955
-26.0884
-28.0551
-30.1567
-32.3549
-34.5961
-36.7656
-38.8401
-40.4304
-41.5138
-42.4261
-40.5086
-37.7691
-36.7485
-30.4993
-26.7995
-20.3179
-6.75801
6.11332
24.5035
44.7976
63.226
75.2092
78.065
71.9678
59.2999
43.2972
26.8321
11.7183
-0.651276
-7.57348
-12.5873
-16.3671
-15.9235
-14.5632
-12.3349
-8.761
-6.73781
-3.58989
-0.0657777
2.54031
4.84145
6.84819
8.45067
9.44991
10.2625
10.919
11.3387
11.6899
11.8095
11.7249
11.7071
11.5249
11.2083
10.7903
10.3371
9.77294
9.23468
8.55475
0.197265
2.92099
2.69593
1.91707
1.4001
1.11222
1.12545
1.40926
1.92768
2.66349
3.60482
4.68979
6.09907
8.89343
14.0041
19.4137
25.131
33.1436
44.0355
57.7473
73.0214
86.3757
91.6068
87.5897
80.3155
71.4449
63.2848
56.5113
52.5561
52.1781
55.585
61.8894
70.4846
79.9702
89.4395
98.2987
106.062
115.492
122.243
130.082
137.193
140.66
144.566
147.751
149.716
150.383
149.78
147.879
144.717
140.385
135.018
128.784
121.82
114.186
105.569
100.856
93.791
85.3404
79.1572
73.7314
68.9164
65.0841
61.1192
57.0441
52.9382
48.8378
44.5153
39.8335
34.8489
29.4605
23.7158
17.1786
10.4741
4.37787
-1.1037
-5.4994
-9.68467
-10.8522
-12.8632
-12.9042
-10.1965
-4.27567
4.99667
14.1009
19.777
33.9514
60.9425
90.4409
123.215
159.306
197.854
235.774
245.373
208.476
138.204
85.5072
47.3082
15.2712
-4.74973
-9.45162
-13.6727
-14.6095
-12.9526
-11.0724
-9.5983
-8.61823
-8.06934
-7.89326
-7.99043
-8.39228
-9.10876
-9.99942
-11.0316
-12.204
-13.453
-14.7267
-15.9958
-17.2438
-18.3096
-19.3451
-20.3256
-21.631
-23.0907
-24.6693
-26.3878
-28.248
-30.27
-32.4642
-34.7921
-37.163
-39.6622
-41.8124
-43.6014
-45.4055
-43.8376
-42.7573
-42.5545
-33.9944
-28.0252
-17.4965
4.13702
28.7753
55.3833
76.3375
86.9087
85.5717
74.3637
57.2601
38.2578
20.1809
4.94298
-5.50251
-10.0747
-17.9078
-18.6877
-17.9808
-16.1298
-13.606
-10.9339
-7.81624
-5.70741
-1.63186
0.660307
2.8712
4.85242
6.41325
7.70801
8.83117
9.74497
10.104
10.4051
10.586
10.7046
10.6779
10.4789
10.2091
9.91869
9.53507
9.15124
8.66426
0.0461921
1.3701
1.71396
1.28608
0.837848
0.574519
0.547247
0.751659
1.16427
1.73273
2.4144
3.15643
3.94709
5.86678
9.69752
14.8635
19.8145
25.022
32.7522
42.927
55.6971
70.3316
83.8996
91.4114
91.6431
83.8179
75.8249
67.7466
60.8029
56.3919
55.3014
56.1926
60.7553
68.0645
77.7043
87.3958
96.8693
104.738
112.389
119.579
126.103
131.829
136.925
141.103
144.133
145.909
146.253
145.168
142.672
138.845
133.827
127.798
120.955
113.19
104.357
99.7435
91.6265
84.7003
78.5725
72.799
67.533
61.1018
55.1954
49.7742
44.7452
40.2401
34.8817
28.8959
22.8635
16.5709
10.8591
4.05496
-3.14224
-8.57481
-13.7607
-16.93
-21.3114
-22.8264
-22.6677
-19.9278
-15.704
-6.83198
5.23451
15.423
24.1296
44.3898
76.9127
111.748
145.88
186.31
223.202
246.696
219.627
139.866
73.3108
40.1863
12.5271
-3.92298
-8.54941
-13.0826
-14.5551
-12.4525
-10.3061
-8.80932
-7.84903
-7.2186
-6.83438
-6.68171
-6.70454
-6.95156
-7.4822
-8.19783
-9.05423
-10.0808
-11.2349
-12.4373
-13.6957
-14.9741
-16.3026
-17.5486
-18.7571
-19.8143
-20.9698
-22.2637
-23.5904
-24.9969
-26.5744
-28.3969
-30.5211
-33.0353
-35.9625
-39.135
-42.7346
-46.2927
-49.9131
-51.5808
-52.22
-52.0697
-46.8881
-32.8587
-21.6193
0.868791
41.2302
70.7905
90.8667
96.9728
89.7171
73.2839
52.7259
32.1916
14.485
0.767819
-7.07023
-13.6699
-16.7619
-16.9793
-15.733
-13.8608
-11.7076
-9.49262
-7.39031
-5.42827
-2.35757
-0.78598
0.728689
2.05877
3.25712
4.38297
5.42374
6.27394
7.0134
7.68531
8.08164
8.37461
8.47725
8.48885
8.47878
8.39597
8.27065
8.08975
-0.110051
-0.357067
-0.632736
-0.623213
-0.727908
-0.788021
-0.706755
-0.456724
-0.0476974
0.493255
1.11255
1.75275
2.42876
3.28013
5.4311
9.59808
14.6198
19.024
23.6362
30.454
39.3323
50.5117
63.7102
77.1494
87.5397
91.0582
89.4762
80.494
74.4126
67.6709
60.9792
56.4095
53.5246
53.4676
56.5217
62.0466
69.1792
76.9208
84.7403
92.1311
99.0234
105.433
111.194
116.148
120.131
123.045
124.719
125.093
124.13
121.847
118.326
113.691
108.178
99.8916
95.7496
90.0403
80.6468
74.3942
68.4959
62.7315
57.1533
50.8021
44.9237
39.3673
34.7711
27.5987
20.2516
12.7434
5.92272
-1.30156
-4.85777
-11.3235
-19.6295
-22.7485
-27.9457
-31.334
-32.2271
-30.8042
-28.137
-22.4999
-15.3841
-4.80749
9.42256
17.7894
34.838
68.6352
101.431
138.506
175.587
215.646
232.534
216.261
155.403
84.5878
30.8541
6.91043
-6.51957
-10.1801
-14.616
-14.0692
-11.5031
-9.61568
-8.3328
-7.44283
-6.82244
-6.35294
-6.00599
-5.80057
-5.71362
-5.80411
-6.1573
-6.70893
-7.40524
-8.28733
-9.33595
-10.4922
-11.725
-13.0092
-14.3649
-15.7252
-17.166
-18.435
-19.7296
-20.7028
-21.6908
-22.7524
-23.8538
-25.1487
-26.7985
-28.9726
-31.7754
-35.2756
-39.6186
-44.6076
-50.221
-56.4918
-61.4848
-63.5353
-64.4784
-55.9794
-36.3085
-22.1291
6.22572
60.4337
88.7084
104.21
103.546
90.102
69.5092
47.2067
26.9928
10.888
-1.21894
-6.43673
-12.2116
-13.5495
-13.1487
-12.0397
-10.5919
-8.99022
-7.16586
-6.03493
-4.08804
-2.41725
-1.17811
-0.250401
0.546798
1.27092
1.84218
2.37706
2.93724
3.55142
4.1169
4.71014
5.26263
5.69482
6.062
6.35733
6.56174
6.75947
-0.280319
-1.5445
-2.12991
-2.71766
-2.87315
-2.72367
-2.48667
-2.12689
-1.64949
-1.08372
-0.471289
0.128936
0.641038
1.03485
2.22464
4.99536
8.81262
13.5124
17.5291
21.3977
27.0658
34.4284
43.689
54.8776
67.3036
78.6891
86.249
87.3685
83.6063
73.8548
67.4333
61.4086
55.7931
50.7824
46.9912
45.1435
45.2611
47.4667
50.9048
55.2844
60.1339
65.0587
69.8735
74.395
78.3808
81.6767
84.1132
85.5776
85.9874
85.3007
83.5274
80.7143
77.038
70.548
67.388
61.8866
55.8968
49.9127
44.0235
38.4133
33.0164
27.5297
22.1893
16.9877
13.6144
8.26647
1.28508
-6.33952
-11.953
-19.5058
-24.8854
-30.3435
-35.4254
-37.6374
-39.3641
-38.4096
-36.9306
-35.3398
-30.6283
-23.3272
-14.0838
2.60613
11.8574
29.2328
66.7933
97.9099
135.867
172.347
204.815
218.656
222.469
100.31
17.1131
2.6065
7.08814
-7.51129
-8.79861
-14.9655
-12.7176
-10.3938
-8.81933
-7.79775
-7.14644
-6.67149
-6.25122
-5.82885
-5.43808
-5.13766
-4.9312
-4.87773
-5.07241
-5.4764
-6.02889
-6.77261
-7.71444
-8.81487
-10.0297
-11.3408
-12.72
-14.1388
-15.618
-17.0665
-18.5655
-19.7914
-20.9174
-21.5456
-22.2215
-23.0832
-24.1849
-25.7942
-28.1248
-31.3706
-35.7503
-41.2845
-48.0962
-56.2888
-65.2954
-73.3934
-76.3946
-74.4979
-60.0812
-35.5657
-17.6742
29.8533
79.5643
105.679
113.51
105.284
86.7893
63.8517
41.6206
22.9759
8.96535
-1.03973
-5.18962
-9.18802
-10.0997
-9.93123
-9.1427
-7.99438
-6.67539
-5.32636
-4.37636
-2.62268
-1.56097
-0.892209
-0.364967
0.0454444
0.34004
0.557479
0.791363
1.03048
1.31608
1.69985
2.23329
2.81172
3.37763
3.92853
4.39229
4.90791
-0.589467
-3.93987
-4.07523
-4.09767
-4.19033
-4.36428
-4.18641
-3.74663
-3.20703
-2.58877
-1.94282
-1.3424
-0.881578
-0.629852
0.0038185
1.67134
4.25044
7.69107
11.9707
16.0305
19.5927
23.9756
29.7116
37.0944
46.2486
56.9147
67.9917
77.1986
82.4847
81.807
77.3248
68.4843
60.0063
53.1848
47.1026
41.4675
36.569
32.6488
29.9938
28.633
28.7018
29.5315
31.184
33.1093
35.1855
37.1135
38.7124
39.8325
40.3415
40.1524
39.2018
37.703
33.9219
31.9427
27.856
23.4271
19.4301
14.8679
10.1117
5.73543
1.69957
-3.02329
-7.56158
-12.0393
-18.8782
-24.4454
-29.193
-34.5569
-36.5513
-39.7755
-44.3095
-43.8262
-44.4328
-45.6932
-45.6951
-46.8712
-43.9382
-41.8202
-29.4864
-21.1934
-3.03019
7.10316
27.9763
64.3116
99.1021
133.535
171.763
201.654
235.442
133.958
42.8238
51.75
34.5223
6.05421
-8.27062
-9.67555
-13.2672
-11.2171
-9.39174
-8.17263
-7.46112
-7.00133
-6.61112
-6.21311
-5.78885
-5.33966
-4.90799
-4.54627
-4.26109
-4.10415
-4.17378
-4.45588
-4.8842
-5.49901
-6.33616
-7.37613
-8.57436
-9.90829
-11.3323
-12.8162
-14.3361
-15.8677
-17.4198
-18.8987
-20.3047
-21.2575
-21.8689
-22.0976
-22.7565
-23.7926
-25.5219
-28.2265
-32.2034
-37.6218
-44.7318
-53.89
-65.0129
-77.2154
-86.6033
-89.3258
-80.2608
-57.4864
-30.0595
-4.72403
64.1228
101.82
118.53
116.877
102.176
80.221
56.7621
35.8905
19.2653
7.40914
-0.362643
-4.40322
-7.00272
-7.98666
-7.91297
-7.16167
-6.11063
-4.94145
-3.77025
-2.82962
-1.19096
-0.563533
-0.0889586
0.221565
0.364709
0.381244
0.366678
0.34728
0.35107
0.442135
0.627664
0.959119
1.39175
1.91785
2.4297
3.05697
-0.771348
-4.98542
-6.57089
-6.47814
-6.1817
-5.67421
-5.333
-5.04361
-4.46797
-3.80589
-3.10917
-2.463
-1.98237
-1.77259
-1.4216
-0.403804
1.27507
3.6107
6.50669
9.86635
13.5262
17.6566
21.6617
25.8004
31.4105
38.5243
47.1203
56.6627
65.8862
72.7345
75.8897
74.4847
69.3011
62.4644
51.0509
43.3568
35.8421
28.5653
22.0903
16.5697
12.1892
8.81792
6.35889
4.5953
3.34377
2.4406
1.74259
1.0401
0.224825
-0.79395
-2.13436
-3.55842
-6.94965
-8.42927
-10.8387
-14.7285
-17.5393
-20.8713
-24.2021
-27.8252
-31.6914
-36.276
-39.7187
-43.2192
-46.5313
-50.176
-52.0163
-50.8365
-50.6786
-52.6662
-54.392
-57.3612
-58.3586
-59.4784
-57.0569
-55.3773
-47.0332
-32.6451
-19.0945
-10.2907
6.91794
37.859
65.0473
100.801
129.924
170.818
197.545
144.127
122.803
139.689
50.0521
-9.1358
-11.325
-8.54172
-11.1008
-11.1931
-10.0393
-8.63592
-7.65159
-7.15756
-6.85354
-6.55617
-6.23345
-5.8641
-5.43385
-4.95983
-4.48868
-4.06612
-3.70434
-3.45419
-3.41231
-3.58135
-3.89678
-4.38901
-5.12307
-6.10181
-7.2838
-8.63569
-10.1076
-11.6571
-13.2465
-14.855
-16.46
-18.0498
-19.5878
-20.9583
-21.9244
-22.3179
-22.294
-22.8542
-23.9753
-26.0363
-29.3924
-34.2993
-41.0973
-50.3842
-62.535
-77.2716
-91.6897
-98.3191
-96.2059
-77.1569
-42.7271
-21.5323
28.8367
94.7454
118.444
124.253
114.043
94.7933
71.2019
48.6523
29.7613
15.2317
5.40106
-1.24707
-3.76636
-6.21931
-7.16619
-6.83225
-5.89748
-4.6508
-3.24564
-2.42089
-0.681027
0.415377
1.01426
1.374
1.50148
1.45144
1.28311
1.00299
0.700563
0.473395
0.370266
0.3955
0.548137
0.845053
1.20904
1.72909
-0.93194
-5.52914
-7.23421
-7.51748
-7.36554
-7.09032
-6.59709
-5.98113
-5.41196
-4.68768
-3.92707
-3.19547
-2.61497
-2.35118
-2.13393
-1.49759
-0.46691
1.0049
2.93087
5.21175
7.75122
10.5661
13.6828
16.8226
20.2937
24.5083
29.7739
36.234
43.7996
51.5284
58.107
62.637
63.648
61.6218
55.5467
47.9081
36.6668
27.9781
19.6014
11.9896
5.12143
-1.00802
-6.46162
-11.2301
-15.4456
-19.1043
-22.4037
-25.3514
-27.9928
-30.4757
-32.8942
-35.0235
-38.5121
-39.8425
-42.7796
-45.3237
-47.4101
-50.1598
-53.0482
-55.9012
-59.0723
-59.1288
-59.7072
-61.8187
-62.9378
-64.1155
-65.2965
-68.298
-69.7753
-71.4204
-71.2626
-71.8681
-69.0515
-67.2961
-59.6973
-46.0694
-33.8567
-21.0539
-9.95607
11.8758
43.7795
73.9516
104.206
137.376
166.115
150.284
175.223
180.321
25.2392
-43.814
-8.75228
-2.37379
-8.56574
-8.26762
-10.7235
-9.09263
-7.68017
-7.0494
-6.80797
-6.69072
-6.53347
-6.28102
-5.97246
-5.59997
-5.14432
-4.6391
-4.13304
-3.656
-3.22218
-2.88714
-2.74334
-2.80388
-3.00938
-3.38641
-4.0226
-4.94256
-6.10887
-7.4759
-8.99163
-10.6037
-12.2708
-13.9625
-15.6504
-17.3258
-18.9551
-20.509
-21.8382
-22.7575
-22.9424
-22.7654
-23.2873
-24.762
-27.4282
-31.627
-37.7437
-46.547
-58.8833
-74.9838
-92.5564
-106.221
-106.818
-93.6947
-63.4439
-30.4954
-1.10322
79.1338
113.481
126.948
122.178
105.93
83.7062
60.2894
39.5504
22.8245
10.4642
2.15261
-2.58531
-4.35311
-7.17101
-6.98852
-6.00012
-4.54919
-2.89748
-1.54049
0.0998529
2.29014
2.97441
3.4772
3.6443
3.52299
3.16309
2.68209
2.14098
1.64065
1.24511
0.958736
0.802026
0.798588
0.91235
1.18366
-1.09062
-5.81359
-7.50709
-7.92443
-7.8705
-7.60246
-7.18112
-6.6292
-5.96423
-5.33195
-4.56404
-3.76239
-3.02213
-2.44772
-2.03053
-1.65837
-1.35359
-0.872369
0.435833
2.20989
4.02961
5.83312
7.64928
9.22716
10.7605
12.4273
14.7006
17.7237
21.3619
25.9012
30.8772
35.801
39.3718
40.976
41.4467
37.8683
29.5565
21.9397
14.1576
6.51192
-0.884907
-7.98797
-14.7482
-21.0877
-27.0068
-32.4539
-37.499
-42.1095
-46.3071
-50.1654
-53.6443
-56.7864
-59.328
-59.3206
-67.2417
-67.5586
-68.8731
-70.6491
-72.8738
-74.85
-76.9714
-77.6191
-79.0606
-81.0494
-82.5131
-83.1625
-84.2619
-84.1942
-83.2944
-83.5948
-80.0763
-78.257
-70.0751
-57.1651
-46.456
-33.6019
-23.9648
-1.60752
23.0938
48.7023
82.2926
104.045
152.251
149.915
191.798
203.235
35.8696
-35.9474
21.8211
14.9192
-5.84603
-4.99713
-9.68911
-9.33054
-7.70286
-6.92314
-6.65013
-6.52905
-6.47167
-6.42052
-6.27424
-6.02184
-5.72938
-5.36847
-4.89776
-4.36827
-3.8325
-3.30224
-2.79363
-2.37464
-2.13226
-2.08378
-2.17937
-2.44621
-2.99184
-3.85835
-5.01165
-6.39317
-7.94849
-9.61874
-11.3609
-13.1393
-14.9228
-16.6929
-18.4265
-20.0858
-21.6193
-22.9156
-23.7264
-23.7324
-23.703
-24.2476
-26.2586
-29.6864
-34.9312
-42.8722
-54.748
-71.292
-90.8524
-108.54
-116.527
-107.403
-79.927
-40.815
-16.8571
51.4685
103.099
124.655
126.351
113.446
93.1772
69.884
47.852
29.3416
14.9143
4.59641
-1.88983
-4.0186
-7.66078
-7.83114
-6.63798
-4.78465
-2.59099
-0.60465
1.28402
4.68155
5.7085
6.51732
6.83752
6.70675
6.26248
5.58366
4.76832
3.94254
3.19442
2.55271
2.04473
1.69546
1.50125
1.44991
-1.20539
-5.81758
-7.51201
-7.99259
-8.02425
-7.82773
-7.5078
-7.07817
-6.55647
-5.91239
-5.22037
-4.4434
-3.68407
-3.10078
-2.70229
-2.43253
-2.20806
-1.89285
-1.15166
0.00378665
1.32938
2.64598
3.62397
3.33587
3.44395
3.85409
4.50452
5.63866
7.53146
10.3321
14.0118
18.2512
23.6342
25.2291
22.4734
19.5889
14.7428
8.79542
2.1986
-4.66993
-11.6618
-18.6585
-25.5403
-32.217
-38.6079
-44.6772
-50.3981
-55.683
-60.5722
-65.046
-69.1459
-72.7388
-75.9781
-79.1999
-79.3179
-78.1774
-79.8989
-83.5435
-88.1119
-91.8427
-93.8233
-95.2376
-96.0627
-97.0933
-97.8274
-96.7677
-96.7695
-93.8846
-89.7012
-88.1608
-79.6116
-66.0425
-50.9505
-44.456
-34.0136
-17.9281
12.0515
34.2969
59.9531
83.2296
119.187
127.868
180.446
203.644
53.8732
-32.476
19.5838
27.9751
-10.5863
-7.04594
-11.9148
-10.0798
-8.07355
-6.90563
-6.30885
-6.11309
-6.13566
-6.16433
-6.18018
-6.16796
-6.04163
-5.81003
-5.54503
-5.19301
-4.6987
-4.14189
-3.57772
-2.99314
-2.40449
-1.89855
-1.55634
-1.39576
-1.37936
-1.54031
-2.00185
-2.82156
-3.96451
-5.36031
-6.95212
-8.67659
-10.489
-12.3532
-14.2343
-16.1084
-17.9545
-19.7284
-21.3896
-22.8911
-24.1259
-24.7771
-24.7798
-24.8166
-25.7918
-28.4461
-32.7433
-39.6213
-50.6054
-66.8805
-87.448
-107.856
-120.595
-116.047
-95.067
-52.0628
-28.406
14.0729
97.7324
118.91
125.884
117.391
99.2205
76.7333
54.1002
34.0951
17.8917
5.88566
-2.00839
-4.57815
-9.16021
-9.5546
-8.02562
-5.59356
-2.6771
0.151953
2.47204
7.46414
9.119
10.4722
11.1376
11.0586
10.558
9.6974
8.57996
7.36145
6.20612
5.14722
4.22203
3.47082
2.91137
2.48525
-1.201
-5.6883
-7.3176
-7.89808
-8.0531
-8.03179
-7.90258
-7.7131
-7.48191
-7.17779
-6.86836
-6.52992
-6.27125
-6.19591
-6.37189
-6.91446
-7.67637
-8.61177
-9.5736
-10.3361
-10.9132
-11.4799
-11.9844
-11.991
-12.313
-12.9034
-13.4484
-13.7968
-13.6653
-12.7826
-11.045
-8.47677
-6.45334
-4.67654
-2.47157
-2.64451
-5.08044
-9.00447
-13.8698
-19.4065
-25.4137
-31.6874
-38.0502
-44.3838
-50.5603
-56.5889
-62.3507
-67.7735
-72.9169
-77.7019
-82.201
-86.3491
-90.1625
-93.8374
-97.1067
-99.6153
-101.962
-104.306
-106.591
-108.357
-109.506
-110.064
-109.596
-109.4
-108.55
-104.125
-102.477
-95.4964
-88.4858
-74.6083
-57.0471
-51.2171
-40.9658
-22.256
-2.03044
21.3666
41.3423
71.4121
98.2669
109.337
119.221
228.134
51.5133
-31.3782
35.8322
39.2431
1.20708
-8.66118
-2.93575
-8.29606
-7.72833
-6.98861
-6.1449
-5.66549
-5.58851
-5.71282
-5.84072
-5.88688
-5.92647
-5.9471
-5.84362
-5.64008
-5.40835
-5.06228
-4.54
-3.95746
-3.36768
-2.72555
-2.04792
-1.44846
-1.00113
-0.724256
-0.597066
-0.654312
-1.03794
-1.81659
-2.94909
-4.3575
-5.98421
-7.76028
-9.6388
-11.5851
-13.5618
-15.5419
-17.5051
-19.4065
-21.1926
-22.833
-24.292
-25.413
-25.8979
-25.9578
-26.3369
-27.85
-31.1804
-36.9086
-46.7529
-62.2399
-82.9672
-105.088
-121.532
-124.399
-105.19
-71.7751
-31.6711
-5.35414
75.0822
109.203
121.372
117.283
101.763
80.5143
57.8774
36.9115
19.2554
5.70203
-3.1106
-6.05034
-11.8488
-12.3178
-10.3585
-7.08628
-3.23202
0.635426
3.32572
9.98474
12.5763
14.6643
15.9386
16.3255
15.9717
15.0403
13.6643
11.9708
10.3502
8.81211
7.37666
6.14101
5.14127
4.28005
-1.2502
-5.38703
-7.00571
-7.7786
-8.16451
-8.44766
-8.77312
-9.19541
-9.77902
-10.4985
-11.4246
-12.5599
-13.9482
-15.6455
-17.8618
-21.1448
-24.705
-28.503
-32.4363
-36.4719
-40.4593
-44.6967
-48.7898
-52.7461
-56.5219
-60.2859
-63.7207
-66.5949
-68.766
-70.0786
-70.3456
-69.4173
-67.2713
-65.2222
-61.5802
-58.4664
-56.7413
-56.2525
-56.8033
-58.5233
-61.2815
-64.7417
-68.7181
-73.1039
-77.7373
-82.5049
-87.1086
-91.5657
-96.0359
-100.231
-104.208
-108.023
-111.48
-114.742
-117.489
-119.728
-121.333
-122.542
-123.139
-122.921
-122.331
-120.557
-117.704
-115.197
-112.5
-102.145
-99.3695
-83.2457
-63.9227
-59.5882
-43.8768
-26.4062
-9.90103
11.2599
31.976
59.7451
76.9213
94.1864
134.591
152.462
35.9616
-73.3992
56.4452
59.0669
2.47803
-8.54871
-3.38631
-8.85192
-6.75682
-6.67325
-6.01142
-5.24363
-4.98855
-5.06327
-5.21418
-5.38769
-5.53019
-5.60882
-5.70171
-5.76793
-5.69009
-5.51702
-5.31901
-4.97306
-4.41592
-3.80945
-3.19945
-2.49342
-1.71455
-1.01191
-0.454419
-0.0578273
0.167924
0.216141
-0.0879933
-0.830671
-1.95564
-3.37062
-5.03242
-6.85946
-8.80046
-10.8239
-12.8919
-14.9748
-17.0562
-19.0913
-21.017
-22.7944
-24.4108
-25.7742
-26.7014
-27.1247
-27.4374
-28.2025
-30.2158
-34.7729
-43.3581
-57.7027
-77.8994
-100.823
-119.96
-127.259
-115.494
-81.7785
-41.1871
-17.4812
49.4316
95.7957
113.41
113.382
100.898
81.288
59.1402
37.7029
18.9524
4.18513
-5.05117
-8.38122
-15.4091
-15.5782
-13.2008
-9.16814
-4.13729
0.444053
3.5953
11.606
15.4704
18.4269
20.4472
21.5492
21.5377
20.7007
19.3058
17.5367
15.6072
13.6169
11.5926
9.7701
8.25397
6.8857
-0.980869
-4.89297
-6.5858
-7.65533
-8.47738
-9.43252
-10.7276
-12.4115
-14.5673
-16.9222
-19.6025
-22.6512
-26.0413
-29.7515
-34.5114
-41.9443
-48.4858
-54.8226
-61.144
-67.5276
-73.9602
-80.6489
-87.5278
-94.6461
-102.132
-110.254
-117.829
-126.035
-133.626
-140.108
-145.476
-150.52
-153.205
-152.686
-150.615
-149.925
-144.417
-140.632
-135.808
-131.847
-129.024
-126.398
-124.927
-125.063
-126.347
-127.754
-128.869
-130.191
-132.058
-133.892
-135.43
-136.959
-138.078
-138.806
-139.073
-139.042
-138.1
-136.399
-134.287
-130.76
-127.845
-121.466
-116.184
-112.006
-95.615
-79.52
-73.3844
-60.4991
-48.6581
-31.3821
-14.7154
5.78302
25.4239
47.0703
67.4026
94.6074
127.326
76.7942
9.08973
124.418
219.925
124.849
4.15031
-12.8862
-7.14913
-4.29665
-6.4315
-7.0008
-6.20412
-5.126
-4.50988
-4.39725
-4.52658
-4.7065
-4.87652
-5.07151
-5.24352
-5.36623
-5.51854
-5.63173
-5.57719
-5.4387
-5.27301
-4.91647
-4.32456
-3.7003
-3.06823
-2.29069
-1.39619
-0.57421
0.0914041
0.609889
0.906713
1.06942
0.851837
0.161303
-0.990369
-2.38584
-4.08873
-5.96864
-7.96785
-10.0621
-12.2155
-14.3959
-16.5924
-18.7653
-20.8393
-22.7704
-24.5534
-26.0881
-27.2481
-28.0458
-28.6249
-29.1492
-30.1418
-33.2192
-40.5067
-53.481
-72.6134
-95.5395
-116.425
-127.28
-120.71
-92.2841
-49.8545
-26.9819
17.4572
86.7914
103.242
106.492
96.9825
79.3445
58.137
36.6965
17.2211
1.47631
-7.49056
-11.3232
-19.5026
-18.9817
-16.27
-11.9267
-6.42656
-0.478203
2.90781
11.5849
17.3617
21.4682
24.4567
26.1893
26.6267
26.01
24.7055
23.0841
21.0503
18.8167
16.5261
14.3117
12.2857
10.3665
-0.998965
-4.3138
-5.43402
-6.5293
-8.16176
-10.1379
-12.7488
-15.7792
-19.0226
-21.8816
-24.7385
-27.7244
-30.7709
-34.0472
-38.3768
-41.7111
-46.1732
-51.2424
-56.668
-62.2962
-67.8633
-74.2468
-80.1831
-86.5954
-94.0494
-104.097
-108.831
-118.824
-132.229
-139.887
-148.864
-157.57
-165.038
-172.28
-177.749
-181.796
-184.421
-185.515
-184.898
-183.286
-181.076
-179.516
-177.656
-175.148
-171.77
-170.146
-167.309
-166.389
-164.717
-162.893
-161.24
-159.277
-157.265
-154.813
-152.075
-148.91
-144.373
-138.349
-133.186
-126.244
-121.628
-104.088
-95.8285
-88.2649
-72.4916
-63.0643
-52.0996
-34.7723
-17.5792
2.52746
21.3396
42.3086
62.5133
82.4317
100.367
92.7977
150.072
227.825
169.097
-30.1455
-91.2853
-39.3336
-6.24155
2.13822
-6.10461
-5.52323
-5.90106
-5.17456
-4.36513
-3.97346
-3.89005
-3.98116
-4.17149
-4.36694
-4.55631
-4.78577
-4.99687
-5.16914
-5.381
-5.53195
-5.49614
-5.39521
-5.26237
-4.88434
-4.25491
-3.62497
-2.97526
-2.10252
-1.07959
-0.125319
0.641264
1.27405
1.59852
1.90649
1.75039
1.18841
-0.0726291
-1.36669
-3.14802
-5.08592
-7.13681
-9.29377
-11.5271
-13.8002
-16.1069
-18.4185
-20.6453
-22.7378
-24.7115
-26.4428
-27.75
-28.7641
-29.6793
-30.3026
-30.7045
-32.5016
-38.2341
-49.6954
-67.363
-89.6171
-111.406
-125.083
-123.095
-101.853
-64.1118
-29.5139
-2.73172
67.9746
90.7459
97.1885
90.5955
75.1689
55.3127
34.3293
14.4791
-1.69295
-10.3103
-14.7956
-23.898
-23.0793
-20.2728
-15.6999
-9.74356
-2.57178
1.36123
8.86052
17.7722
22.8322
26.9439
29.7331
31.0248
30.9806
29.9354
28.2211
26.0826
23.7321
21.3573
18.9546
16.6081
14.412
-0.742167
-0.578006
-1.47013
-3.69075
-6.90706
-10.2594
-13.5382
-16.0708
-17.0703
-18.0361
-18.9293
-19.9339
-21.3029
-22.8253
-25.6012
-28.6374
-32.0672
-35.585
-39.3249
-43.2805
-46.6671
-52.7735
-55.4187
-60.2412
-67.7792
-74.2678
-80.0355
-88.8533
-98.2282
-107.347
-116.799
-127.009
-136.724
-146.44
-155.403
-163.576
-170.939
-176.948
-181.481
-184.651
-186.46
-187.386
-187.381
-186.546
-184.649
-182.912
-180.071
-176.807
-173.901
-170.546
-166.766
-162.458
-158.085
-153.18
-147.835
-142.211
-133.312
-122.827
-109.828
-102.159
-91.7014
-83.8861
-74.1962
-64.3304
-47.0865
-33.0449
-14.4728
1.61795
19.9897
40.5633
58.3392
78.0889
94.6255
99.5857
134.694
107.414
-18.8852
-81.401
-20.0441
30.7414
26.6289
10.3589
-0.653593
-2.05318
-4.83719
-5.24051
-4.43892
-3.67084
-3.29188
-3.26272
-3.4024
-3.60361
-3.83457
-4.04631
-4.26762
-4.53777
-4.79004
-5.01213
-5.27755
-5.46038
-5.44326
-5.38385
-5.28053
-4.87255
-4.20633
-3.58277
-2.91719
-1.92693
-0.741141
0.338283
1.2051
1.9131
2.18192
2.70634
2.91348
1.85743
0.957657
-0.178112
-2.20596
-4.21069
-6.30395
-8.51678
-10.8276
-13.1907
-15.6015
-18.0492
-20.4321
-22.6848
-24.8581
-26.8278
-28.3053
-29.438
-30.6009
-31.4617
-31.6001
-32.4541
-36.751
-46.3823
-62.291
-83.3237
-105.27
-121.015
-123.009
-106.809
-73.5298
-36.1444
-14.6887
44.5972
76.1651
86.0835
82.3899
69.3619
51.224
31.1494
11.3179
-5.28135
-12.4933
-18.5804
-27.7837
-27.2921
-24.7784
-20.2503
-14.3209
-7.51854
-0.744919
4.24261
15.8128
22.0552
27.1761
31.0983
33.5593
34.436
33.9865
32.5739
30.643
28.4439
25.8948
23.2004
20.6193
18.3214
-5.89147
16.2041
-13.1926
-2.51331
1.36259
4.05389
6.26798
9.47604
11.3046
12.0884
10.9257
8.20847
5.3036
1.26695
-2.37207
-5.5357
-8.30805
-9.64262
-11.0305
-12.574
-14.0463
-17.07
-18.9981
-24.4461
-27.7157
-32.0582
-37.3401
-44.4332
-51.6641
-59.4298
-66.8242
-78.1982
-88.1495
-97.6104
-106.791
-116.707
-125.984
-134.223
-141.717
-148.104
-152.947
-156.917
-159.761
-161.488
-161.986
-161.779
-160.449
-158.268
-155.478
-151.847
-147.69
-142.561
-136.186
-128.586
-120.675
-111.824
-100.668
-95.4791
-86.8119
-76.9283
-66.8708
-52.2763
-38.9314
-23.4676
-7.36036
6.1807
27.6386
40.4107
60.2206
77.9216
89.9292
108.711
113.193
97.3083
42.9585
39.0067
57.6803
47.1439
13.6738
-4.92055
-7.20877
-2.78361
-4.29966
-4.17045
-4.21916
-3.50371
-2.93591
-2.69222
-2.72167
-2.87985
-3.06755
-3.2786
-3.51404
-3.73953
-3.99772
-4.31145
-4.60646
-4.88016
-5.19732
-5.4083
-5.41268
-5.402
-5.32333
-4.87316
-4.17471
-3.57523
-2.88262
-1.73787
-0.341987
0.864003
1.8576
2.25782
2.77741
3.95418
3.93614
3.35026
1.6414
0.547125
-0.800748
-3.2174
-5.40592
-7.67943
-10.0716
-12.5288
-15.0426
-17.6306
-20.1839
-22.6061
-24.9878
-27.2381
-28.9541
-30.2074
-31.5498
-32.663
-32.7295
-32.8807
-35.9047
-43.5324
-57.08
-76.3112
-97.738
-114.967
-120.621
-109.703
-82.5221
-43.973
-22.8457
17.484
61.7438
73.0086
72.2059
61.9056
45.9611
27.3577
8.06725
-8.83709
-14.351
-21.8361
-30.8137
-30.9086
-29.0442
-25.002
-20.0169
-13.8263
-5.94602
-1.13002
8.60505
18.2046
24.4387
29.8986
33.6737
35.7389
36.2447
35.46
33.855
32.2639
29.957
27.3105
24.6311
22.1776
1.38565
1.00332
1.08882
1.53177
2.6651
3.69079
5.12547
6.26155
9.89165
13.2929
14.8841
30.6893
25.3961
33.7435
42.5195
47.7765
50.4675
54.8639
53.644
50.4263
46.0519
40.5197
35.1707
29.5089
23.6954
19.0224
15.1764
9.18953
4.28944
-2.73057
-10.4393
-18.2497
-22.2698
-30.5411
-39.1368
-48.1932
-58.7882
-67.801
-76.2814
-83.8722
-90.4359
-96.5861
-101.979
-106.407
-109.479
-111.254
-112.056
-111.813
-110.486
-108.066
-104.099
-99.5585
-94.2131
-87.6987
-81.0187
-72.292
-64.4935
-53.5399
-42.1863
-31.2496
-19.585
-4.87734
7.57198
25.8723
37.3895
52.8226
72.5129
79.0598
95.3689
102.488
109.607
74.3731
53.4285
37.7235
25.3035
10.4835
-3.77814
-2.93072
-2.54555
-1.69226
-3.1699
-3.00833
-3.08084
-3.4118
-2.8336
-2.37412
-2.19194
-2.228
-2.37415
-2.55358
-2.74212
-2.95556
-3.19326
-3.44147
-3.74783
-4.10762
-4.44275
-4.77282
-5.14102
-5.37579
-5.40725
-5.4532
-5.38974
-4.8796
-4.1623
-3.61162
-2.86424
-1.48602
0.161193
1.58125
2.05398
2.73035
4.12613
5.09612
5.15568
4.49896
3.42386
1.14149
-0.162614
-1.6426
-4.41343
-6.78961
-9.26458
-11.8197
-14.4327
-17.1605
-19.8998
-22.5101
-25.1181
-27.6907
-29.7236
-31.164
-32.6805
-34.0256
-34.098
-33.7756
-35.782
-41.4818
-52.2088
-69.0164
-89.1432
-107.016
-115.653
-109.705
-88.4935
-57.305
-28.2006
-4.93909
45.8033
58.364
60.2261
52.8483
39.557
23.1065
5.31074
-10.8626
-16.1783
-23.3348
-32.2257
-32.6199
-31.3678
-28.6736
-25.2429
-20.6501
-14.7229
-8.06999
-3.57412
7.08358
16.0426
22.7838
28.3722
32.1715
34.4674
35.3409
34.9145
33.6987
31.9599
29.7825
27.3822
25.1087
0.453054
3.11812
-3.82241
2.16907
-1.21653
0.347948
12.4827
-2.92046
-1.83142
3.95246
4.17394
6.46311
6.64942
11.6758
15.6024
20.6918
27.464
34.9385
44.7539
56.8337
68.6233
80.6824
92.233
101.308
108.611
114.887
117.894
115.435
115.868
103.008
91.4926
76.3924
64.3676
53.5383
43.149
32.2523
22.8916
6.65252
3.86003
-1.92891
-13.1304
-20.2109
-27.1468
-34.1764
-38.9564
-40.4922
-43.1433
-43.8329
-42.6022
-40.6537
-37.974
-34.4052
-29.7951
-23.828
-17.8916
-9.3901
-2.57696
6.85411
17.3761
24.9976
37.3022
51.4215
62.8432
79.2763
78.1958
103.581
105.15
108.451
97.5341
66.354
46.8758
30.2517
17.7855
9.2354
3.90529
2.17144
1.15656
-0.403892
-1.0027
-2.16865
-2.87361
-2.5866
-2.46585
-2.061
-1.7898
-1.70365
-1.76764
-1.90805
-2.07041
-2.23246
-2.40899
-2.62245
-2.87523
-3.16261
-3.52365
-3.92935
-4.30172
-4.69101
-5.10857
-5.36373
-5.43182
-5.53725
-5.47475
-4.89222
-4.1861
-3.70985
-2.85162
-1.14317
0.796527
1.90056
2.42028
3.32906
5.72963
6.50008
6.54863
5.77001
4.65148
3.16546
0.192895
-1.14288
-2.62146
-6.01444
-8.42973
-11.0492
-13.7322
-16.5741
-19.5003
-22.3196
-25.1923
-28.1591
-30.6083
-32.3336
-34.0804
-35.6678
-35.7842
-35.1224
-36.3357
-40.3644
-48.2051
-62.2315
-80.4224
-98.0655
-108.721
-106.915
-91.118
-63.7814
-33.6731
-17.6615
23.022
42.8402
47.9506
43.4651
33.021
19.1925
3.90158
-10.2307
-17.2339
-21.717
-30.0359
-30.0317
-29.724
-28.8522
-26.9654
-24.0762
-20.0906
-15.3353
-10.6242
-5.94545
4.76126
10.1028
14.4736
19.2591
23.3211
26.3527
28.3223
28.9507
28.64
27.9294
26.5389
24.8512
0.0914187
0.205598
0.0246376
-0.38139
0.121115
-0.200001
0.393814
-0.201619
-0.024997
-1.64394
2.30006
2.02727
-6.6411
5.89069
2.73836
2.87818
3.92848
6.32178
8.71084
12.9077
17.198
23.9072
31.9093
40.7987
52.4254
65.888
78.5971
95.3855
107.895
125.391
143.262
157.257
164.798
168.936
168.282
165.324
158.033
148.586
138.115
124.88
115.706
99.6992
89.5696
74.7933
69.3296
66.8816
60.4527
55.0163
51.2118
50.1502
50.0019
50.5421
52.9993
56.6555
60.6603
66.6434
70.1477
76.7325
83.2913
81.5924
99.569
106.738
114.531
105.998
108.152
83.1178
62.9588
47.9578
33.3817
21.5418
13.6675
7.64222
4.64453
2.24203
0.875636
0.0458203
-0.50876
-1.5374
-2.31995
-1.87723
-1.37422
-1.80374
-1.536
-1.28274
-1.25568
-1.36074
-1.49094
-1.61493
-1.74082
-1.88339
-2.06334
-2.2929
-2.58126
-2.9172
-3.32919
-3.7742
-4.17905
-4.62938
-5.09523
-5.36947
-5.48726
-5.65065
-5.56819
-4.91465
-4.26234
-3.88591
-2.80105
-0.629135
1.32243
1.88183
2.82908
4.9848
7.04494
8.00851
8.05269
7.24016
5.85555
4.56612
2.21864
-1.19285
-2.14378
-4.37781
-7.44025
-10.0684
-12.7605
-15.6543
-18.7402
-21.7781
-24.9661
-28.4711
-31.5589
-33.7879
-35.9158
-37.8322
-38.0616
-37.1401
-37.652
-40.119
-45.1699
-56.2161
-71.9585
-88.589
-100.31
-101.758
-90.7069
-68.4654
-38.6916
-25.05
0.53876
33.6989
36.5885
34.5212
26.9598
16.0921
3.8766
-7.25681
-14.9644
-17.9528
-23.5668
-24.1164
-23.896
-23.429
-22.8949
-22.103
-20.8133
-19.1251
-16.4796
-14.6477
-10.7308
-3.20893
1.09295
5.54068
9.69783
13.2786
16.0093
17.742
18.5303
18.1429
18.2981
17.7743
-0.0392953
-0.00817866
-0.0437316
-0.10575
-0.084369
-0.0682995
-0.0896882
-0.109003
-0.0949648
-0.295587
0.301741
-0.531336
-0.191468
0.241871
-0.0450184
-0.0936007
1.2171
-2.20155
2.73821
2.02786
2.12111
3.55107
4.79039
7.07642
9.54359
13.6682
17.6695
24.3528
31.3268
39.6503
51.0315
63.2893
76.9342
91.0608
105.744
120.336
133.08
145.522
155.147
162.491
167.344
172.428
172.487
173.268
166.426
166.824
157.791
156.854
157.872
138.83
143.743
140.066
138.487
135.828
136.104
132.164
129.87
126.334
115.394
118.265
97.6421
79.8492
64.7869
50.3806
39.9896
28.8239
20.7451
14.0962
8.70572
5.71726
3.30937
1.8982
1.32007
0.368084
-0.264997
-0.880754
-1.42193
-1.09276
-0.979244
-1.21175
-1.29624
-0.894685
-0.805039
-0.877583
-0.985971
-1.10016
-1.19607
-1.28388
-1.39455
-1.54115
-1.7349
-1.99028
-2.32056
-2.70202
-3.15422
-3.6329
-4.07411
-4.58653
-5.09799
-5.39204
-5.57314
-5.78949
-5.65838
-4.96134
-4.41311
-4.12295
-2.6557
-0.0433896
1.37907
2.15699
3.21454
6.75129
8.8723
9.7525
9.67797
8.81513
7.24798
5.6253
3.78806
-0.0332588
-1.5926
-3.15967
-5.96075
-8.68972
-11.3293
-14.1685
-17.2818
-20.442
-23.8749
-27.9771
-32.0311
-35.2771
-38.2397
-40.7673
-41.2944
-40.223
-40.012
-40.876
-43.1715
-51.2083
-64.1243
-79.0585
-90.9453
-94.7071
-87.5948
-70.0351
-46.1447
-26.1374
-14.6271
17.7268
27.5159
26.7917
21.8462
14.101
5.24213
-2.81397
-8.31033
-11.8365
-14.3609
-13.7419
-12.6908
-12.8701
-13.694
-15.0815
-16.1791
-16.7537
-17.0982
-16.8899
-15.7804
-12.2239
-9.41526
-6.65978
-3.80946
-1.01492
1.43561
3.51428
5.40457
7.13413
8.5395
9.02728
-0.0372656
-0.0141041
-0.0281948
-0.0512207
-0.0515935
-0.0403477
-0.0434129
-0.0438266
-0.0523166
-0.0446762
-0.0148543
-0.0941256
-0.0235237
0.00368389
-0.0930125
0.185826
-0.241673
-0.0369966
0.283127
0.345929
-0.228445
1.27691
0.674873
1.04182
1.45028
2.24423
2.86388
4.07563
5.50077
7.2033
9.70335
12.4664
16.3593
20.4773
26.0933
31.7868
38.9433
46.132
54.1239
62.3527
70.7083
78.9357
86.0727
93.8303
99.1566
105.048
106.993
109.736
106.662
107.863
101.247
96.6966
92.0007
85.4855
79.0937
71.1544
63.3615
55.2754
46.8865
39.9913
32.3712
24.9755
19.7736
14.0859
9.39031
7.95436
5.44135
3.10415
2.26435
1.75791
1.58398
0.225054
0.0405454
-0.409838
-0.882949
-0.586455
-0.556146
-0.47085
-0.677181
-0.585906
-0.499952
-0.50782
-0.571256
-0.668325
-0.749753
-0.822458
-0.878237
-0.942567
-1.05575
-1.21685
-1.4307
-1.71842
-2.08849
-2.50796
-2.98628
-3.49899
-3.98157
-4.55617
-5.112
-5.43096
-5.6886
-5.9483
-5.74388
-5.05132
-4.66451
-4.33372
-2.38983
0.391823
1.20607
2.48715
3.84166
8.69691
10.8003
11.6314
11.4711
10.5575
8.91097
6.88399
5.02461
2.1599
-1.30459
-2.29876
-3.80248
-7.09665
-9.71283
-12.3391
-15.1113
-18.0136
-21.3043
-25.5442
-30.3787
-35.1606
-39.982
-44.0899
-45.6146
-44.7887
-43.8799
-42.9438
-42.5111
-47.4287
-57.2974
-69.9675
-81.1833
-86.2992
-82.3519
-69.14
-49.4199
-28.3043
-19.0559
2.61448
16.6155
20.5613
18.4924
13.6205
7.9964
3.22749
-0.081362
-2.05843
-2.72018
-1.96496
-1.52967
-1.88149
-3.87828
-6.70202
-9.55582
-12.045
-13.8532
-14.8336
-14.86
-14.1758
-12.2126
-10.806
-9.11017
-7.54484
-5.95879
-4.48378
-3.0146
-1.76482
-0.471891
0.199832
-0.0271289
-0.0121129
-0.0135812
-0.0202947
-0.018687
-0.010536
-0.0039014
0.00166241
0.00705987
0.019078
0.0266433
0.0308194
0.0542221
0.0633299
0.0712962
0.114924
0.0657685
0.115899
0.164424
0.160763
0.0786019
0.270083
0.253214
0.275904
0.136235
0.955068
0.60398
0.812763
1.16683
1.46005
1.94239
2.39814
3.19455
3.91157
5.00883
6.10717
7.66456
9.18599
11.0117
12.9952
14.924
17.374
19.019
21.771
22.9635
24.5127
25.5449
26.4686
26.8832
27.2337
25.7202
25.0847
24.0456
22.366
20.4277
18.0185
15.637
13.1474
10.5722
8.74523
7.27269
5.55438
4.7419
3.21645
3.49237
0.311191
4.08994
0.804447
0.707239
0.525696
0.283335
-0.115779
-0.46752
-0.250823
-0.143571
-0.0257576
-0.111419
-0.247741
-0.157651
-0.139428
-0.197463
-0.289503
-0.373762
-0.443765
-0.477141
-0.516185
-0.555026
-0.621266
-0.747284
-0.922799
-1.158
-1.47385
-1.87475
-2.32062
-2.81814
-3.36577
-3.8984
-4.53028
-5.13181
-5.4862
-5.83338
-6.12225
-5.8353
-5.19833
-5.0026
-4.49951
-2.14926
0.526625
0.972229
2.79689
5.26204
10.028
12.4104
13.1955
13.2627
12.5366
10.9855
8.53679
6.09132
3.58213
-0.357615
-1.37405
-3.0523
-6.04145
-8.95021
-11.1384
-13.0044
-14.9959
-17.5388
-21.1445
-25.6017
-30.9922
-37.8901
-45.0914
-49.5555
-50.4212
-49.4883
-46.7383
-43.3889
-45.1997
-51.8725
-61.8197
-71.625
-77.1568
-75.5073
-65.8869
-49.7526
-31.5747
-19.6515
-9.99051
11.3393
15.2046
15.8874
14.3449
11.9922
9.97563
8.98298
8.8944
9.18531
9.11038
7.9852
5.85428
2.15389
-1.9981
-5.7234
-8.58348
-10.4968
-11.6113
-12.0931
-11.9739
-11.5133
-10.8771
-10.0528
-9.29073
-8.45262
-7.62411
-6.77875
-5.97835
-5.1347
-4.55701
-0.018315
-0.00885483
-0.00446142
-0.00157134
0.00454788
0.0140511
0.0245156
0.0351175
0.0464197
0.0594281
0.0725736
0.0864034
0.102415
0.115071
0.131317
0.143113
0.146035
0.159049
0.180337
0.153318
0.147272
0.160051
0.166543
0.179454
0.188512
0.266712
0.293508
0.304334
0.528315
0.492925
0.666278
0.814705
1.02433
1.20186
1.45479
1.68809
2.01213
2.32751
2.70524
3.10229
3.47429
3.9167
4.29096
4.615
4.83595
5.12342
5.29384
5.41995
5.51581
5.55689
5.33686
5.23714
5.0997
4.82275
4.56655
4.03643
3.75636
3.03425
3.15555
2.93566
2.60096
2.16169
1.77046
1.4136
1.26731
0.976515
0.978704
0.456102
0.235797
0.0227772
-0.000892307
0.239938
0.305109
0.357681
0.285143
0.176882
0.161413
0.176367
0.120142
0.0375329
-0.0457417
-0.111335
-0.145611
-0.179713
-0.186101
-0.219561
-0.259657
-0.335953
-0.468752
-0.654185
-0.910224
-1.24171
-1.66543
-2.12764
-2.63619
-3.2163
-3.82207
-4.50347
-5.15651
-5.56108
-6.00635
-6.30578
-5.94193
-5.41997
-5.37943
-4.5243
-1.77409
0.0259204
0.913931
2.72204
6.62834
10.9189
12.9527
14.3232
14.5046
13.5123
11.4788
9.15906
6.40155
3.65661
0.0139701
-2.62978
-5.43458
-8.29981
-10.2058
-10.0983
-10.6925
-11.915
-13.3697
-16.3523
-20.8566
-25.6347
-31.4867
-40.0856
-49.1814
-54.5695
-55.7887
-52.1789
-46.0641
-44.6286
-48.0986
-55.1425
-62.8926
-67.9689
-67.6626
-60.7996
-47.7772
-31.3648
-18.7907
-12.9832
3.58428
11.873
14.9981
16.0003
16.3001
16.8003
17.8303
19.0302
19.4276
18.1058
14.9882
10.258
4.71784
-0.394188
-4.24874
-6.63232
-7.82057
-8.29345
-8.45337
-8.51603
-8.58682
-8.60738
-8.52773
-8.35632
-8.13701
-7.86378
-7.57287
-7.10832
-6.74608
-6.17313
-0.011861
-0.00365817
0.00380555
0.0115202
0.020902
0.0321683
0.0444065
0.0571041
0.0697202
0.0823683
0.0960707
0.105976
0.115345
0.124825
0.130882
0.125858
0.124727
0.130442
0.144136
0.152691
0.167425
0.183351
0.20338
0.222681
0.25549
0.279639
0.320771
0.349675
0.36473
0.453682
0.470945
0.529915
0.600018
0.668621
0.762709
0.861957
0.974816
1.09464
1.21621
1.33669
1.4608
1.60191
1.69081
1.90706
2.0014
2.09924
2.16983
2.22857
2.27956
2.30836
2.29809
2.28677
2.24564
2.18743
2.13433
1.95168
1.92977
1.69218
1.55885
1.40108
1.25727
1.12568
0.903077
0.705362
0.461602
0.461781
0.329856
0.502893
0.612108
0.649089
0.685776
0.630361
0.595212
0.509115
0.482275
0.475629
0.419948
0.342616
0.254126
0.186341
0.136851
0.101893
0.0957701
0.0698669
0.0711681
0.0310001
-0.00939076
-0.0847162
-0.221882
-0.39696
-0.674033
-1.01847
-1.43991
-1.89652
-2.43559
-3.01834
-3.73395
-4.48375
-5.18176
-5.65503
-6.19911
-6.49211
-6.08634
-5.70883
-5.72725
-4.54368
-1.48665
-0.510311
0.795367
2.45087
7.56249
10.7987
13.6129
15.3824
15.374
13.9664
11.4196
8.01922
3.92556
-0.448236
-2.83061
-6.71256
-8.92915
-11.4198
-13.1282
-10.8594
-8.84191
-8.82792
-7.86474
-9.4063
-13.1361
-18.4867
-24.7608
-33.3774
-42.9225
-53.8008
-60.117
-58.0525
-50.2554
-45.8224
-46.0447
-50.1801
-55.608
-59.4526
-59.5496
-54.5302
-43.9905
-29.7292
-16.9973
-12.3387
-1.68639
11.2928
15.6454
18.6713
20.999
23.2857
25.4783
26.9151
26.5411
23.4602
18.2476
11.6022
4.77684
-0.686322
-4.07725
-5.47961
-5.53414
-5.02537
-4.52912
-4.32036
-4.42909
-4.71887
-5.06588
-5.33761
-5.58043
-5.71394
-5.81636
-5.70774
-5.59557
-5.2202
-0.00585237
0.002499
0.0115035
0.0213459
0.0322048
0.0440237
0.0558641
0.0675464
0.0765918
0.0850831
0.0950874
0.0906611
0.0925984
0.0986995
0.108533
0.11935
0.131711
0.146701
0.162566
0.198206
0.232223
0.263741
0.295899
0.332904
0.38427
0.426367
0.384605
0.50294
0.519892
0.55188
0.588688
0.633031
0.675985
0.716922
0.762827
0.806095
0.848614
0.889235
0.930446
0.985154
1.0436
1.08884
1.15015
1.16651
1.20531
1.24348
1.26436
1.27837
1.28639
1.28348
1.27742
1.26144
1.22114
1.20262
1.13676
1.09014
1.02481
0.945722
0.871494
0.824184
0.822069
0.721301
0.82036
0.899019
0.94607
0.994854
0.996175
1.00494
0.941228
0.900781
0.843007
0.818091
0.772013
0.72582
0.663936
0.593408
0.517896
0.455995
0.396538
0.356778
0.327961
0.301969
0.300198
0.270176
0.274568
0.232167
0.203994
0.153409
-0.0166787
-0.129287
-0.395506
-0.902955
-1.15604
-1.44723
-2.24475
-2.91977
-3.44265
-4.55122
-5.1606
-5.76797
-6.39517
-6.68031
-6.27913
-6.07345
-5.91932
-4.67668
-1.8331
-0.813118
0.804286
2.30742
7.75703
11.3586
14.6735
16.3886
15.8852
12.9679
8.55272
4.55781
-0.721868
-2.87272
-6.14269
-18.0833
-19.5913
-22.6534
-22.685
-14.3461
-5.07744
-2.81833
2.24559
2.18405
-4.3778
-5.41005
-11.4725
-22.9537
-34.8957
-47.643
-59.9921
-62.2942
-54.9471
-48.4642
-45.75
-46.9582
-50.0162
-52.2424
-51.9498
-47.8677
-39.0193
-26.2074
-14.0592
-10.005
-3.46566
12.9222
17.6893
22.1235
25.7047
28.7694
31.0112
31.3211
29.2657
24.1683
16.6662
8.42666
2.16645
-2.09758
-4.12978
-3.89324
-2.46381
-0.969548
0.097554
0.572573
0.514081
0.118381
-0.443322
-0.972155
-1.46134
-1.81708
-2.13342
-2.21705
-2.36278
-1.90176
6.56154e-05
0.008659
0.0181358
0.0283438
0.038772
0.0492227
0.0576757
0.065653
0.0658512
0.0676624
0.074697
0.0832635
0.092741
0.103828
0.121118
0.147532
0.175716
0.205472
0.234094
0.25999
0.302163
0.34252
0.314545
0.434586
0.454095
0.486246
0.521197
0.564928
0.601703
0.640381
0.682378
0.725926
0.768537
0.810609
0.853266
0.895877
0.937521
0.978888
1.0184
1.05807
1.09917
1.13771
1.17648
1.2101
1.23833
1.26406
1.28431
1.30125
1.31717
1.32787
1.33929
1.33952
1.34518
1.35228
1.34649
1.34701
1.33906
1.3305
1.31707
1.30739
1.29101
1.27087
1.26212
1.24668
1.23844
1.20239
1.17149
1.11717
1.07851
1.03463
0.987266
0.932893
0.871548
0.805044
0.742509
0.684714
0.628174
0.581964
0.534364
0.501689
0.475213
0.449668
0.446325
0.419961
0.431206
0.40167
0.397541
0.389867
0.177902
-0.0137456
0.198419
-0.611212
-0.854864
-1.39492
-1.96075
-2.63373
-3.99569
-4.58168
-4.76528
-6.02317
-6.56875
-6.87511
-6.41871
-6.55745
-6.02023
-4.60072
-2.9603
-0.517334
0.674794
2.61328
7.46329
12.5342
15.2032
15.5509
13.0619
10.4148
5.23794
0.659378
-4.52736
-14.9908
-32.2131
-40.7999
-42.7218
-45.4698
-37.6629
-11.5526
-3.56963
4.70077
23.6392
28.6717
26.2847
15.931
-1.37355
-7.38407
-16.0633
-37.5283
-54.7803
-63.2119
-58.9012
-51.812
-46.9443
-45.497
-46.1223
-46.6467
-45.51
-41.592
-33.5008
-21.3129
-10.4307
-6.72287
-0.6419
15.1777
20.8072
25.9661
29.8895
32.3734
33.4175
31.2793
24.7506
17.3425
9.40976
3.68969
-0.44768
-2.99013
-3.88532
-2.64381
0.109698
2.23747
3.60786
4.21264
4.18025
3.74928
3.10326
2.46395
1.88254
1.44074
1.04842
0.867311
0.66026
0.995395
0.00531608
0.0137313
0.0227192
0.0319354
0.0400335
0.0477621
0.0485172
0.05425
0.0608551
0.0680022
0.077338
0.0976987
0.117607
0.137882
0.157943
0.181741
0.210424
0.249514
0.257961
0.316909
0.327739
0.36921
0.40291
0.446776
0.484964
0.524578
0.564603
0.60514
0.645684
0.687735
0.731203
0.775411
0.819607
0.863638
0.907796
0.951727
0.995364
1.03856
1.08031
1.12191
1.1629
1.20206
1.23931
1.27451
1.30778
1.33735
1.36498
1.39097
1.41297
1.43407
1.45044
1.46592
1.47327
1.47757
1.47741
1.47642
1.46972
1.46119
1.45001
1.43667
1.41899
1.39273
1.3629
1.3329
1.29507
1.26852
1.2301
1.18776
1.13626
1.08417
1.02925
0.97312
0.917662
0.86083
0.80913
0.757021
0.707776
0.665012
0.621199
0.590666
0.565259
0.543856
0.543732
0.533045
0.550477
0.552853
0.594373
0.533068
0.431169
0.48168
0.186544
-0.0305502
-0.466226
-1.00269
-1.72356
-2.55864
-3.38773
-4.35043
-5.73062
-6.10855
-6.49218
-6.96803
-6.37058
-6.99779
-6.27198
-4.01882
-3.4279
-0.845337
1.86431
3.63437
7.77054
12.6186
13.5845
12.8204
10.9617
4.05682
-1.01087
-11.3574
-28.2742
-54.0607
-73.2754
-79.6777
-76.4913
-68.5198
-40.565
-6.37741
3.49256
18.3291
46.2742
62.2388
72.8511
58.4724
37.1359
8.2089
-4.05965
-17.224
-40.6131
-58.7866
-60.9708
-54.7736
-49.0062
-45.5592
-43.9784
-42.7545
-40.6503
-36.294
-27.9818
-15.8754
-6.68222
-3.18534
5.03022
18.3622
24.5026
29.4622
32.635
33.1281
29.729
23.1164
16.0486
9.4926
3.1976
-1.69328
-3.20396
-3.29433
-2.59534
-1.42789
3.79587
6.21128
7.45488
7.87923
7.66609
7.11777
6.3892
5.72544
5.17629
4.77126
4.44568
4.23512
4.20344
4.42998
0.0102207
0.0180234
0.025737
0.0332739
0.0370644
0.0428031
0.0480254
0.0552078
0.0691374
0.0843836
0.100673
0.116656
0.1398
0.164344
0.175066
0.203007
0.23787
0.269635
0.297182
0.326651
0.359557
0.394869
0.431069
0.468489
0.506833
0.545974
0.585892
0.626572
0.668049
0.710562
0.754036
0.798125
0.842498
0.887021
0.93171
0.976203
1.02052
1.06407
1.1072
1.14955
1.19046
1.23012
1.2676
1.30363
1.3368
1.36831
1.39525
1.41937
1.44092
1.4587
1.47324
1.4821
1.48987
1.49239
1.49359
1.48849
1.48481
1.47726
1.46469
1.45077
1.42993
1.40669
1.38023
1.3497
1.31787
1.2845
1.246
1.20343
1.1553
1.10688
1.05768
1.00608
0.956352
0.901415
0.853605
0.800439
0.754426
0.711871
0.670297
0.645158
0.622385
0.611477
0.618848
0.622792
0.657633
0.70921
0.742579
0.830476
0.521558
0.904458
0.638498
0.49206
-0.0354974
-0.623868
-1.46864
-2.15923
-3.53314
-4.09034
-5.10075
-6.2426
-6.4342
-6.29991
-6.58644
-5.57311
-4.40553
-2.22399
-1.61334
-0.448242
4.06927
5.67444
8.56108
11.3879
12.7618
6.70396
2.1216
-2.09185
-19.2585
-53.6403
-83.7001
-113.222
-124.486
-114.707
-95.8766
-66.3704
-17.8524
-2.18751
16.1917
45.5558
67.8663
83.7309
97.8106
111.795
96.7941
54.39
22.2967
-4.74588
-18.2009
-46.2585
-58.8173
-57.2794
-51.2607
-46.5864
-43.2842
-40.448
-37.2231
-31.9746
-22.7271
-10.8635
-3.3989
0.637565
12.2617
21.8076
27.9321
31.7504
31.6846
27.175
20.9956
14.5229
4.44603
-2.18019
-4.70262
-7.59073
-5.57239
-2.75904
-0.492287
0.884988
7.46489
9.80863
10.7604
10.8663
10.3862
9.66657
8.84182
8.17669
7.70389
7.30563
7.04477
6.82842
6.82553
6.97697
0.0152423
0.022077
0.0268685
0.033416
0.0395014
0.046424
0.0592684
0.0721851
0.0863581
0.101855
0.123743
0.116998
0.168784
0.186669
0.207554
0.229698
0.256873
0.284283
0.31381
0.344112
0.376277
0.409808
0.444513
0.480341
0.517301
0.555271
0.594197
0.634018
0.674699
0.71621
0.75853
0.801405
0.84467
0.888227
0.931916
0.975538
1.01872
1.06155
1.10302
1.14372
1.18307
1.22172
1.25735
1.2913
1.32307
1.35196
1.37826
1.40063
1.41895
1.44128
1.45569
1.46389
1.47146
1.47355
1.47434
1.46995
1.46301
1.45189
1.43453
1.42143
1.40115
1.38339
1.35987
1.3353
1.31011
1.28094
1.24697
1.20668
1.16225
1.11469
1.06751
1.01536
0.967767
0.910858
0.865927
0.809796
0.769803
0.727385
0.692302
0.674808
0.654071
0.660211
0.671961
0.691401
0.787808
0.810295
0.919862
1.03957
1.05811
1.27286
1.2222
1.19432
0.480411
-0.0962157
-1.10317
-1.74702
-3.09956
-3.59575
-4.86799
-5.26634
-5.18773
-4.51589
-4.50222
-3.43623
-2.35845
-1.02526
-0.497897
0.421013
4.92668
6.64627
7.80896
7.16857
3.54246
1.66601
-16.7767
-37.9637
-79.7006
-124.741
-161.114
-169.949
-150.678
-114.573
-74.6881
-30.0298
2.91749
15.8031
44.1487
66.3415
85.152
100.494
117.38
134.469
138.544
120.42
70.6648
29.0829
-5.59504
-19.109
-50.1105
-55.5721
-53.813
-48.9252
-43.8006
-39.3095
-34.914
-28.1176
-17.7662
-5.3226
-0.953142
4.17956
18.7511
25.8542
29.9071
29.6224
25.5601
19.1839
5.94865
0.163683
-7.12288
-14.3783
-14.0086
-11.1632
-6.52811
-1.72531
0.99631
3.11528
10.673
12.141
12.7507
12.5723
11.8802
11.0243
10.1524
9.49012
9.14418
8.6072
8.43442
8.09587
8.02846
8.06581
0.0200982
0.0267417
0.0327875
0.0399849
0.050713
0.0621516
0.0748475
0.0896926
0.108877
0.108041
0.140424
0.155154
0.177635
0.198802
0.220858
0.244586
0.269776
0.296544
0.324755
0.354258
0.385048
0.41708
0.450179
0.484429
0.51976
0.556125
0.593435
0.631602
0.670548
0.710215
0.750455
0.791279
0.832526
0.874158
0.915699
0.957118
0.998108
1.03836
1.07781
1.11595
1.15347
1.18848
1.22387
1.25701
1.2874
1.3149
1.33896
1.36002
1.37643
1.39347
1.4026
1.40616
1.41067
1.40699
1.4071
1.3954
1.39167
1.3759
1.35437
1.36912
1.3633
1.36663
1.35176
1.33766
1.31056
1.27343
1.2331
1.18537
1.13789
1.08557
1.03766
0.982085
0.935755
0.877294
0.838117
0.781308
0.754208
0.710011
0.691124
0.674592
0.663606
0.689359
0.691824
0.811219
0.819102
0.974619
1.02047
1.44172
1.54195
2.04505
2.07326
2.04588
1.12132
0.849949
-0.427985
-0.878419
-2.49185
-2.95401
-3.06802
-3.75676
-4.44459
-3.1122
-3.20923
-1.59814
0.0310843
1.03395
2.68252
4.02547
6.51435
6.83236
2.43238
-0.495024
-11.1693
-30.7321
-59.3976
-118.659
-181.728
-208.997
-205.365
-170.061
-112.213
-63.4263
-11.7194
5.99275
22.4273
49.2467
62.4676
78.1181
94.3135
109.636
127.094
147.572
162.205
154.945
126.235
77.7173
29.4381
-7.85073
-30.7629
-51.0506
-53.2133
-50.3856
-45.4386
-39.7179
-32.9948
-24.1149
-12.5419
-1.65559
2.03529
9.42484
23.3871
27.4141
27.554
23.6143
13.0455
2.6519
-4.23497
-20.1455
-22.92
-22.6976
-18.9998
-13.2806
-6.88565
-1.11695
0.800255
5.09285
10.9298
12.138
12.4808
12.1735
11.4602
10.587
9.7854
9.12313
8.8767
8.24646
7.92596
7.49279
7.41711
7.19413
0.0299942
0.036249
0.0456356
0.0560289
0.068834
0.0748732
0.0933572
0.102916
0.119843
0.135637
0.152984
0.171429
0.190801
0.211321
0.233124
0.256273
0.280759
0.30657
0.333667
0.362011
0.391568
0.422281
0.454196
0.48716
0.521064
0.556083
0.59188
0.628366
0.665453
0.703065
0.741145
0.7796
0.818401
0.857195
0.896166
0.934681
0.972504
1.0095
1.04556
1.08072
1.11458
1.14735
1.17747
1.20529
1.23031
1.25222
1.27077
1.28592
1.29763
1.30599
1.31143
1.31339
1.31347
1.30945
1.30562
1.29546
1.28998
1.28293
1.27459
1.26195
1.25112
1.23144
1.21882
1.19195
1.1663
1.13317
1.10241
1.06497
1.03062
0.987061
0.949509
0.901167
0.863896
0.814323
0.784179
0.734931
0.718293
0.674173
0.673809
0.647082
0.667717
0.66686
0.788245
0.908261
0.729278
1.21676
1.45819
1.8254
2.35348
3.17089
3.00168
3.06817
2.33411
1.31626
-0.219881
-1.044
-1.91493
-3.71927
-2.36533
-2.54885
-2.22599
2.92914
3.45803
7.91619
10.9053
9.38794
13.0869
11.3957
7.41949
4.51016
-9.54764
-22.1085
-46.0196
-99.1484
-164.002
-234.952
-257.345
-214.084
-134.978
-69.7136
-27.0829
9.79578
20.2665
36.4727
48.6013
58.3051
68.4238
81.8093
97.2526
113.065
131.839
153.767
173.037
177.596
159.351
117.557
65.8677
16.0164
-6.25153
-37.5961
-50.8177
-50.6493
-46.2966
-40.2613
-32.4376
-22.0655
-9.66061
0.465744
3.7663
14.9437
22.8194
24.0254
18.5359
7.77721
1.79575
-16.8986
-26.8525
-31.6179
-31.2378
-27.1702
-21.0691
-14.3394
-8.04669
-2.66256
-0.820299
4.65014
7.93108
9.13114
9.34299
9.14546
8.66137
8.01109
7.20361
6.98402
6.63093
5.77956
5.3853
5.11357
4.98639
4.38834
0.0478939
0.0480494
0.0658918
0.0742862
0.0862423
0.0970196
0.109332
0.123095
0.13787
0.153631
0.170495
0.188498
0.207608
0.227839
0.24925
0.271878
0.295747
0.320863
0.347227
0.374824
0.403627
0.433584
0.464634
0.496686
0.529676
0.563106
0.597168
0.631716
0.666636
0.701832
0.737228
0.772752
0.808264
0.843617
0.878422
0.912634
0.946159
0.978983
1.01106
1.04221
1.07204
1.10004
1.12561
1.14824
1.16757
1.18346
1.1959
1.20506
1.21104
1.2143
1.21476
1.21329
1.20929
1.2043
1.19694
1.18953
1.18005
1.17103
1.16039
1.15006
1.13911
1.12711
1.11621
1.10116
1.08864
1.06917
1.051
1.02274
0.995733
0.956009
0.921216
0.874963
0.83393
0.78847
0.74449
0.705206
0.664758
0.641859
0.614501
0.635629
0.589115
0.747473
0.711007
1.21119
0.973769
1.32247
2.03059
2.64121
3.56578
4.02014
3.61401
2.98839
1.22963
0.532289
-0.719122
-2.5347
-1.61385
-3.57102
0.104292
5.09307
9.29815
22.667
26.2444
34.0056
41.1759
33.1719
37.2835
29.0061
8.18539
2.30776
-30.0701
-72.2852
-126.176
-228.865
-280.803
-224.048
-125.972
-63.3864
-15.287
17.1843
24.6164
37.2206
39.0581
41.5457
45.6117
54.2078
65.6135
81.0191
98.6408
116.871
136.339
158.244
178.382
187.87
177.014
141.733
91.1321
41.1887
6.11399
-12.2708
-46.1632
-50.8451
-47.2686
-40.5143
-30.4873
-18.1601
-5.76537
2.78172
5.63343
16.4358
18.5097
11.291
6.08183
-5.12143
-23.4806
-33.1566
-37.9348
-37.7861
-33.9565
-27.9389
-21.5657
-15.7506
-10.7751
-6.33256
-4.34109
0.675336
2.6196
3.67548
3.88764
3.95462
3.92553
3.64173
3.12265
2.97778
2.72331
2.07323
1.79422
1.53129
1.36752
0.692579
0.0700128
0.0765728
0.0865397
0.0974617
0.108084
0.120145
0.133253
0.14713
0.162016
0.177814
0.194499
0.212067
0.230495
0.25014
0.270988
0.29309
0.316459
0.341125
0.367089
0.394334
0.422816
0.452486
0.483262
0.515031
0.54764
0.580985
0.614775
0.6488
0.68283
0.716711
0.750293
0.78341
0.815874
0.847553
0.878356
0.908327
0.937573
0.966112
0.993738
1.02001
1.04426
1.06581
1.08413
1.09888
1.11005
1.11788
1.12268
1.12483
1.1246
1.12243
1.11836
1.11318
1.10635
1.09948
1.09098
1.08378
1.07474
1.06825
1.05981
1.05442
1.04781
1.04283
1.0383
1.03103
1.0252
1.01027
0.994548
0.96399
0.932288
0.882224
0.836456
0.7794
0.721643
0.67236
0.608557
0.583455
0.521738
0.53249
0.506369
0.569643
0.5913
0.802563
0.74219
1.1961
1.45269
1.69419
3.62728
3.0608
2.69324
2.18656
1.63546
1.93755
0.700162
-2.16294
-2.23531
-5.06279
0.278818
6.2259
20.4765
41.5446
63.7624
96.7828
110.637
125.133
131.978
109.7
104.104
85.2357
13.043
8.15421
-66.5967
-203.714
-228.556
-167.886
-95.9114
-21.0854
18.3262
29.5563
40.7009
51.9061
47.3435
43.3551
38.164
34.7596
35.7259
41.2818
56.2476
77.715
99.6625
120.842
141.264
162.469
182.087
191.993
182.699
150.915
103.376
52.9772
12.8134
-5.71849
-25.4387
-52.7376
-47.2845
-37.402
-24.9707
-12.2472
-1.41619
5.81413
9.56456
10.0192
7.80393
2.02734
-14.681
-26.8415
-36.0411
-40.4724
-40.5761
-37.1694
-31.721
-26.5892
-22.114
-18.4497
-15.5149
-12.7456
-9.98354
-7.15087
-5.36086
-4.14718
-3.62896
-3.21655
-2.5513
-2.29103
-2.25007
-2.20245
-2.22542
-2.35195
-2.3054
-2.48699
-2.62948
-3.09846
0.0947673
0.104053
0.113413
0.124986
0.13589
0.148517
0.161528
0.176264
0.191214
0.207111
0.224307
0.242052
0.261161
0.281189
0.302363
0.324566
0.348093
0.372789
0.398802
0.426052
0.454588
0.484278
0.515148
0.547112
0.580015
0.613708
0.647967
0.682332
0.716762
0.750666
0.783786
0.815766
0.84643
0.875458
0.902916
0.928727
0.952745
0.974769
0.99433
1.01111
1.02437
1.034
1.04007
1.04229
1.04119
1.03787
1.03271
1.02605
1.01823
1.0092
0.999209
0.988579
0.977182
0.965973
0.95387
0.943641
0.931597
0.923832
0.91291
0.908941
0.901483
0.901134
0.899461
0.897714
0.897722
0.885286
0.870275
0.827052
0.788589
0.711913
0.66359
0.586975
0.532947
0.478365
0.439806
0.425173
0.44263
0.563631
0.433843
0.739384
0.800931
1.07557
1.54638
1.63456
1.80396
1.81361
0.0811082
-1.03871
1.31522
-0.0114387
-5.29236
-3.90312
-11.4132
-21.2788
-22.9603
-19.0033
3.90646
38.7984
92.9562
158.272
230.621
292.836
320.059
335.921
300.454
267.275
224.313
163.998
62.8136
-30.6521
-54.5186
-32.2071
9.05588
46.654
61.0502
95.6754
103.317
96.0112
80.5092
61.4925
40.6978
25.9052
19.7852
9.8405
20.9932
34.8378
47.3529
83.7696
111.23
132.757
150.998
165.446
174.008
175.661
167.478
135.558
89.2412
42.0506
6.83682
-7.78913
-25.8245
-45.3621
-37.4356
-26.1806
-14.7098
-5.3151
1.17922
4.38424
4.63075
2.50073
-6.92727
-17.0079
-27.3459
-33.0023
-35.0728
-34.9884
-33.0935
-30.242
-27.7044
-25.1144
-22.583
-20.4741
-18.516
-16.5953
-14.6813
-12.7782
-11.1347
-9.79419
-9.02482
-8.33339
-7.65549
-6.94753
-6.4055
-5.95649
-5.60904
-5.31965
-5.06695
-5.01395
-5.05911
-5.27719
0.118516
0.128243
0.138636
0.149659
0.161424
0.173949
0.187246
0.20125
0.216057
0.231753
0.248299
0.265703
0.283968
0.303107
0.323125
0.344091
0.366066
0.389138
0.413277
0.438411
0.464457
0.491446
0.519442
0.548484
0.57858
0.609675
0.641621
0.674287
0.707325
0.740338
0.772836
0.804198
0.833658
0.860471
0.883882
0.903292
0.918336
0.928972
0.935111
0.938294
0.934088
0.930555
0.919274
0.915867
0.89896
0.885811
0.872869
0.859259
0.845532
0.826669
0.805553
0.783278
0.761222
0.73801
0.715991
0.695547
0.675581
0.661069
0.644362
0.640886
0.633006
0.643421
0.656966
0.670032
0.698569
0.717985
0.719338
0.682705
0.651771
0.556016
0.555218
0.46472
0.457218
0.541875
0.203879
0.680498
0.678513
0.743522
0.567696
2.17228
1.41239
2.2087
-0.428489
-0.377728
0.935411
-5.74331
1.16308
-12.8169
-11.9628
-14.0651
-33.176
-62.1524
-70.9581
-104.163
-89.1058
-44.7527
22.6426
84.9881
147.081
188.102
217.253
258.544
278.368
306.001
311.141
285.607
247.017
197.11
150.299
130.753
138.251
151.035
158.38
159.973
145.86
123.493
96.866
70.0883
46.0455
26.7525
18.2787
4.36425
0.137907
2.5593
12.0214
26.9964
45.5056
70.2085
110.038
128.44
144.523
155.783
162.16
156.381
129.356
93.7461
53.3801
18.1427
-3.79508
-10.1654
-30.0576
-30.3999
-22.6803
-13.7597
-6.13741
-1.12592
1.04249
1.2432
-1.286
-4.95425
-13.2827
-19.2641
-23.3531
-25.6816
-26.7413
-27.1311
-27.0904
-25.8598
-23.8172
-22.7252
-22.1004
-21.7469
-20.3371
-18.9424
-17.5279
-15.6942
-14.5536
-13.6896
-12.7521
-11.7961
-10.7692
-9.70218
-8.81182
-8.0711
-7.48342
-6.96905
-6.61265
-6.38764
-6.34603
-6.33508
0.124115
0.132905
0.142149
0.151892
0.162222
0.173386
0.1866
0.201079
0.21634
0.231383
0.246899
0.263179
0.280181
0.297772
0.315766
0.33394
0.351001
0.366154
0.380296
0.396882
0.416022
0.436632
0.458249
0.480665
0.503755
0.527473
0.551803
0.576645
0.601911
0.627414
0.652719
0.677319
0.700593
0.721874
0.740708
0.75675
0.769836
0.779896
0.786833
0.79072
0.791106
0.789998
0.77655
0.761431
0.74286
0.727805
0.702094
0.690769
0.685198
0.647882
0.611898
0.577288
0.550451
0.51618
0.486471
0.459974
0.441962
0.425331
0.415856
0.422234
0.430211
0.472609
0.541841
0.578019
0.719966
0.729489
0.848925
0.827986
0.776847
0.647598
0.802424
0.515331
0.78964
0.625074
0.789885
0.845628
1.62432
0.815194
2.0597
-0.458976
-3.14302
-0.767191
-0.742201
-4.6525
1.17535
-23.7678
-10.9478
-47.815
-71.5844
-70.9839
-163.131
-197.263
-209.243
-139.404
-82.615
-51.488
-34.2125
-13.5001
13.2449
55.453
72.4781
98.9264
152.329
191.593
209.303
216.199
215.901
201.893
192.207
199.284
213.552
209.573
186.724
145.644
109.157
77.161
50.7202
30.7641
16.5084
10.2217
2.00946
-1.27909
-1.71708
1.55863
9.96511
23.9173
42.8203
64.1905
95.6648
112.523
124.851
129.742
122.904
104.474
82.4357
50.1898
21.4691
0.128033
-6.96978
-17.2367
-21.1791
-16.7087
-9.23696
-3.46562
-0.26724
4.74286
4.51292
3.379
0.628305
-3.8709
-8.62184
-12.4996
-15.108
-16.5937
-17.6091
-18.5684
-19.3753
-19.8013
-20.086
-20.3661
-20.48
-19.7676
-19.5589
-18.5753
-17.8092
-17.066
-15.819
-14.7019
-13.4173
-12.5139
-11.4412
-10.2284
-9.19869
-8.31974
-7.6491
-7.01698
-6.591
-6.2134
-6.1194
-5.92067
0.128806
0.137305
0.146247
0.155661
0.165484
0.176381
0.187227
0.197754
0.207884
0.218973
0.231402
0.244779
0.258803
0.273353
0.288438
0.303626
0.319311
0.336496
0.356332
0.377097
0.397263
0.416722
0.435756
0.454465
0.472808
0.490721
0.508146
0.525018
0.541333
0.557085
0.572278
0.58701
0.601394
0.61555
0.629556
0.643222
0.656086
0.667395
0.676154
0.681249
0.682639
0.677783
0.672487
0.665871
0.655341
0.647693
0.615345
0.586754
0.555771
0.534085
0.484286
0.470547
0.398312
0.447024
0.362913
0.33329
0.337071
0.316727
0.347965
0.33527
0.431662
0.564173
0.358754
1.13079
0.816503
1.1586
1.21905
1.18369
1.06157
0.874985
1.20265
0.743356
1.08876
0.752151
1.00778
0.499385
0.206095
-2.49603
-0.944181
5.45078
-10.3771
-11.4607
-7.43823
-14.9521
-19.048
-89.5031
-69.5752
-156.067
-185.807
-264.772
-193.951
-114.435
-96.1954
-64.9366
-52.0884
-59.2782
-75.556
-82.5165
-91.1422
-75.083
-39.6655
10.5631
59.9872
96.6461
138.269
173.405
197.761
211.882
216.552
208.184
183.827
156.819
122.782
87.9735
57.757
33.536
15.7844
4.54145
-1.85515
-6.38753
-7.64939
-7.53719
-5.97794
-2.56264
3.45017
13.8556
27.991
44.4672
62.2627
74.2508
81.3215
80.877
71.312
59.2504
34.4084
16.7234
1.72463
-6.3703
-9.75431
-10.8144
-8.10962
-4.06652
4.8187
7.9062
10.972
12.0582
11.2336
9.6262
6.57045
2.70337
-0.596765
-3.52484
-5.68054
-7.37785
-9.10757
-10.975
-12.7411
-14.154
-15.3221
-16.295
-17.1441
-17.3033
-17.1871
-17.0215
-16.7568
-16.2985
-15.2105
-14.4785
-12.7266
-11.7299
-10.6382
-9.3846
-8.30959
-7.40171
-6.71628
-6.103
-5.69573
-5.36112
-5.25847
-4.97282
0.12646
0.134796
0.143611
0.152935
0.162734
0.172798
0.180199
0.186565
0.192928
0.201804
0.211833
0.222339
0.233294
0.244877
0.257397
0.27118
0.288974
0.31256
0.340543
0.365532
0.386827
0.406426
0.425222
0.443573
0.461562
0.479156
0.496272
0.512799
0.528647
0.54368
0.55785
0.571028
0.583212
0.594318
0.604328
0.613133
0.620533
0.62629
0.62995
0.630852
0.629303
0.620459
0.623957
0.622512
0.616533
0.599444
0.587074
0.57521
0.558667
0.53945
0.524014
0.487383
0.453533
0.417932
0.393233
0.36792
0.362385
0.365921
0.382828
0.433302
0.489573
0.628763
0.855585
0.987927
1.20472
1.38427
1.88089
1.29717
1.17268
1.02055
1.33504
-0.0875292
0.237687
0.980418
-2.10575
-1.80006
4.29367
-12.4971
-10.9385
-1.81785
-19.3962
-57.974
-44.0122
-9.78531
-194.203
-139.813
-224.43
-175.969
-98.0085
-95.0651
-53.2254
-13.5213
-5.09347
-10.2273
-56.6965
-100.249
-124.059
-126.966
-114.273
-90.3894
-56.6816
-12.7995
30.435
70.4175
106.832
137.428
159.287
170.718
166.664
150.039
126.908
100.013
71.5152
45.0084
22.8304
5.39019
-5.05988
-13.6931
-17.1604
-18.1328
-17.5971
-16.3917
-14.1546
-10.5989
-4.89034
0.457124
7.85864
16.5635
25.7867
31.8981
34.7728
33.4096
28.4753
13.9765
6.68503
-0.951106
-5.05686
-5.25485
-2.9463
2.10509
6.91346
12.4466
17.0632
18.8981
19.0768
19.2731
18.714
16.7327
14.061
10.855
7.73026
4.95605
2.72232
0.493775
-1.97428
-4.5213
-6.8548
-8.83707
-10.6467
-12.3968
-13.9762
-14.7979
-15.0154
-15.2998
-15.6024
-15.1833
-14.3907
-13.3581
-11.5874
-10.4702
-9.17162
-8.00749
-6.93196
-6.07639
-5.40785
-4.87956
-4.50821
-4.24192
-4.14762
-3.83673
0.11189
0.119267
0.127062
0.135303
0.144003
0.15313
0.162369
0.171767
0.181486
0.19169
0.202321
0.213354
0.224884
0.237037
0.249976
0.263871
0.278923
0.29517
0.312411
0.329876
0.347051
0.364083
0.380993
0.397908
0.414775
0.431554
0.448173
0.46445
0.48043
0.495696
0.510453
0.524168
0.537157
0.548885
0.559699
0.569167
0.577569
0.584577
0.590344
0.594375
0.597091
0.596451
0.595454
0.590555
0.589522
0.566046
0.58276
0.596345
0.580139
0.577097
0.543127
0.537601
0.527235
0.51387
0.520489
0.479471
0.492497
0.474692
0.507016
0.498147
0.530866
0.904579
0.931933
0.804163
1.52943
1.9526
0.565766
0.895287
1.93766
-1.38826
2.53338
-4.78865
0.152646
-4.07437
-4.14136
-7.21608
-8.85751
-23.3768
-63.2844
-26.4791
-72.8412
-138.296
-106.294
-178.605
-137.276
-64.4191
-76.4704
-34.4966
22.8172
47.7866
94.8497
63.2778
11.5097
-35.7439
-69.5584
-85.8833
-88.7017
-83.2557
-72.2614
-54.8572
-27.3166
-0.547216
27.5446
55.4069
81.0972
103.122
118.475
124.553
118.449
103.806
84.0362
61.4252
38.6665
18.0111
0.863535
-11.7313
-21.221
-25.8454
-27.379
-27.5735
-26.1703
-23.5608
-21.4917
-19.4564
-17.2577
-15.5532
-12.9144
-9.62745
-6.10216
-4.12565
-2.89789
-0.655176
-6.20503
-8.08269
-8.15718
-7.07226
-2.89758
2.26351
8.13171
11.836
17.3052
22.479
25.4327
27.0322
28.1572
27.6605
25.8145
23.2545
20.1481
17.0825
14.2477
11.751
9.33443
6.62585
3.68225
0.802379
-1.84666
-4.32481
-6.84783
-9.30493
-11.6137
-12.9016
-13.2175
-14.1175
-14.2475
-13.7615
-12.7868
-11.7705
-10.0424
-8.90457
-7.4969
-6.51661
-5.29975
-4.64345
-3.99155
-3.63066
-3.20661
-3.04049
-2.96667
-2.66394
0.0919952
0.0981668
0.104665
0.11154
0.1188
0.126463
0.134505
0.142913
0.151759
0.160992
0.170697
0.180763
0.191363
0.202395
0.214024
0.226262
0.239032
0.252595
0.266414
0.281079
0.295537
0.310872
0.325947
0.341661
0.357612
0.373801
0.390429
0.406819
0.423995
0.439743
0.456526
0.471466
0.487364
0.5012
0.515969
0.528169
0.541915
0.552033
0.564851
0.573191
0.58435
0.59164
0.599913
0.604099
0.610892
0.608601
0.602482
0.625262
0.568923
0.628846
0.561215
0.633732
0.614442
0.683602
0.570482
0.585476
0.426472
0.374114
0.666795
0.126961
-0.00858211
-0.148398
-0.294421
-0.652949
-0.334982
1.30957
0.398036
-3.43679
1.03782
-1.55076
-2.67987
-11.6142
-2.0233
-22.9099
-19.4304
-5.98691
-80.2082
-38.5099
-139.4
-132.76
-154.477
-110.814
-39.1657
-46.52
-8.06129
38.7098
68.2404
136.669
127.654
94.7437
58.5475
15.5451
-20.2509
-43.8576
-55.8125
-58.3952
-55.1785
-48.9523
-38.1407
-21.3036
-7.10037
7.52937
24.8288
43.3494
61.535
77.3639
87.7633
90.0262
83.829
71.4325
55.1103
36.9072
18.8037
2.27771
-11.0867
-22.5146
-29.808
-34.0512
-35.6854
-35.7401
-34.2563
-32.0965
-30.8325
-30.4071
-30.7387
-31.153
-31.1255
-30.6109
-29.7061
-28.8618
-27.5447
-26.0074
-20.9879
-16.5198
-12.1253
-7.21383
1.40932
8.91415
15.9053
22.629
27.7668
31.918
33.9781
34.6801
34.4357
32.5009
29.9055
27.1852
24.3527
21.6074
19.0482
16.6499
14.0449
11.0686
7.98502
5.02985
2.13301
-0.859819
-3.87511
-7.02894
-10.0085
-10.8263
-11.4507
-12.7921
-12.6475
-12.0168
-11.0486
-10.0131
-8.15423
-7.13429
-5.73807
-4.92098
-3.68096
-3.22748
-2.56032
-2.29545
-1.97057
-1.843
-1.78609
-1.51034
0.0732927
0.0785723
0.0838862
0.089627
0.0956952
0.102257
0.109276
0.116556
0.124522
0.13243
0.141381
0.149979
0.159941
0.169492
0.180187
0.19127
0.20215
0.21518
0.226008
0.241155
0.251774
0.268366
0.27977
0.296843
0.31386
0.330313
0.350018
0.366888
0.387606
0.399285
0.421041
0.433197
0.453956
0.467251
0.487031
0.499412
0.520774
0.528706
0.553914
0.556517
0.584117
0.583554
0.611842
0.605236
0.6382
0.610926
0.655385
0.636288
0.591241
0.586839
0.553146
0.46057
0.296291
0.209028
-0.101697
0.497737
-0.407397
-1.19379
0.99912
-2.25506
-1.33709
-3.72104
-1.13593
-6.4164
-3.40513
-6.69037
-8.24951
-0.678629
-14.1777
-7.98979
-12.3415
-29.3673
-52.1347
-31.6961
-91.1744
-104.963
-125.413
-121.507
-67.4489
-10.6839
-29.5704
15.8231
38.8656
78.6846
136.47
130.731
116.953
108.803
82.8983
52.4035
21.0286
-6.66254
-26.3062
-37.5673
-41.6909
-40.5772
-34.5551
-26.9593
-15.841
-6.37741
0.459127
9.84659
21.7554
35.0792
48.4265
59.5438
65.8619
65.9413
60.0835
49.6771
36.4207
21.9627
7.63811
-5.4717
-17.3297
-26.9266
-34.2691
-39.2596
-42.0465
-42.8886
-42.3641
-41.5143
-41.1596
-41.5527
-42.5331
-43.5632
-44.2621
-44.4353
-43.9651
-42.7536
-40.5755
-36.6408
-28.4448
-20.8975
-12.7174
-3.41918
8.08287
16.5093
24.529
30.802
34.5745
36.8508
38.1357
37.8167
36.4876
34.2223
31.5869
29.024
26.544
24.1194
21.8459
19.5941
16.999
14.0819
11.1537
8.2686
5.18372
2.0023
-1.4873
-5.37681
-8.12573
-8.85995
-9.68761
-11
-10.654
-9.94765
-8.79898
-8.04051
-6.11104
-5.28603
-3.95879
-3.2544
-2.15329
-1.78101
-1.21519
-1.0057
-0.760271
-0.683697
-0.631766
-0.408291
0.0624108
0.0677388
0.0712167
0.0762645
0.0809762
0.0873986
0.0939363
0.100227
0.108553
0.113831
0.12435
0.1287
0.141214
0.145628
0.157702
0.165613
0.172683
0.187804
0.18736
0.211602
0.203002
0.232733
0.223953
0.249278
0.246396
0.253828
0.272149
0.254616
0.294997
0.267822
0.318358
0.288628
0.331599
0.316558
0.336627
0.34535
0.33786
0.367515
0.337259
0.376733
0.337467
0.363352
0.334367
0.342836
0.287372
0.23014
0.343311
0.07882
0.19616
-0.429353
0.0627436
-0.44647
-0.868866
-0.437608
-2.07307
-0.956154
-3.52726
-2.9108
-5.3289
-6.34358
-8.12748
-13.2836
-9.26471
-26.4408
-24.6291
-21.0984
-24.1111
-12.0523
-26.0487
-28.3378
-57.2832
-96.8366
-98.2725
-127.84
-98.5247
-29.2274
-23.345
-1.58731
38.8635
54.286
97.7401
117.222
111.294
108.854
113.522
96.8191
79.8283
64.5525
43.0366
19.582
-2.70092
-20.0264
-31.2212
-36.1101
-35.6361
-31.324
-23.2234
-16.2753
-8.08463
-3.46737
2.26285
9.82292
19.2129
29.5492
39.3195
46.8517
50.381
49.2684
43.9393
35.4868
25.1474
13.8155
3.23075
-7.75381
-17.8745
-26.9824
-34.8546
-41.1291
-45.6331
-48.3139
-49.5677
-50.0325
-50.2662
-50.6353
-51.1999
-51.7228
-51.9104
-51.4657
-50.1246
-47.5832
-43.476
-37.1002
-28.9609
-19.7459
-9.49437
2.84119
12.1088
20.4548
28.4999
33.7167
36.6427
38.3494
38.1036
36.7271
34.8982
32.7457
30.4808
28.3557
26.3075
24.349
22.6263
20.8545
18.6464
16.1117
13.5338
10.867
8.08208
4.58685
0.390992
-3.16316
-5.5321
-6.73595
-7.40292
-8.48251
-8.16916
-7.50472
-6.62517
-5.65595
-4.05984
-3.37211
-2.15423
-1.58875
-0.66361
-0.355067
0.0947849
0.259942
0.426846
0.482395
0.494156
0.60742
0.033821
0.039409
0.0308208
0.0297302
0.0243662
0.0283167
0.0269361
0.0271807
0.0290909
0.0219228
0.029273
0.0142312
0.0266335
0.00544221
0.0150712
-0.000596496
-0.00973848
-0.0028497
-0.0441666
-0.000322281
-0.0873552
-0.0103125
-0.11608
-0.0398741
-0.122208
-0.099068
-0.100118
-0.180604
-0.0634232
-0.271226
-0.0480124
-0.339286
-0.0873665
-0.356783
-0.207833
-0.316073
-0.414381
-0.235042
-0.691309
-0.158511
-0.984518
-0.188837
-1.19447
-0.446933
-1.47344
-1.35556
-1.57492
-2.68401
-1.71421
-4.3817
-2.33634
-6.19499
-2.72679
-7.59194
-4.69364
-8.99093
-8.62647
-10.5155
-16.3083
-10.5299
-25.3162
-16.1391
-31.2803
-19.7998
-18.3179
-14.007
-21.8358
-71.395
-62.3673
-132.247
-123.04
-65.7596
-73.5204
-12.8186
34.0794
53.3393
104.685
121.654
109.609
90.5618
88.4876
84.0109
79.7732
80.9134
78.844
66.4222
53.2288
38.6944
21.663
4.02616
-12.0666
-24.0553
-32.5771
-36.4907
-35.9804
-31.6237
-24.9337
-18.2908
-10.779
-6.99271
0.497966
7.79742
16.0414
24.2746
31.4507
36.4478
38.2191
36.6944
32.4704
26.3912
19.2622
11.0024
3.71781
-4.79151
-13.4826
-22.1077
-30.4454
-38.0348
-44.4755
-49.5311
-53.0052
-55.018
-55.8805
-55.957
-55.592
-54.9212
-54.057
-52.5559
-49.9796
-46.1208
-40.6387
-33.4279
-24.7333
-15.5034
-5.7653
5.32725
13.6165
21.4751
27.8439
31.4908
33.3036
33.5968
32.002
29.7317
28.0768
27.0245
25.9175
24.8261
23.6834
22.8686
22.3223
21.4873
19.9204
17.8105
15.8612
13.9164
10.9512
6.8544
3.08234
0.209834
-1.86908
-3.38698
-4.51325
-4.90648
-4.90041
-4.54582
-3.69107
-2.98077
-2.00377
-1.22597
-0.397347
0.199077
0.798454
1.11967
1.4196
1.55347
1.64494
1.6829
1.61584
1.40716
-0.22585
-0.143443
-0.197994
-0.25826
-0.298576
-0.32071
-0.348874
-0.367932
-0.411868
-0.428895
-0.489986
-0.501087
-0.576606
-0.588794
-0.671398
-0.693328
-0.737722
-0.771384
-0.811006
-0.844047
-0.891566
-0.904172
-0.973584
-0.957709
-1.0501
-1.02155
-1.1049
-1.11515
-1.12499
-1.2465
-1.11692
-1.39526
-1.11612
-1.51765
-1.16914
-1.57818
-1.3098
-1.56086
-1.54234
-1.47933
-1.85185
-1.35573
-2.20668
-1.2854
-2.14093
-1.01034
-1.86962
-0.778509
-1.20637
-0.66217
0.142927
-0.68743
0.272576
-0.986435
0.568005
-0.831334
0.768479
-0.344778
1.29199
0.87612
2.4657
6.34686
7.23166
36.128
-0.353116
-21.6821
-51.9644
-153.848
-179.451
-144.333
-24.8389
20.4571
88.4102
171.701
152.175
112.148
86.5541
70.027
59.5344
54.5289
53.2144
52.9528
53.4867
52.7087
47.088
38.5397
29.3388
19.6273
9.58203
-0.608909
-8.35957
-16.0115
-21.8029
-25.9828
-28.3008
-28.53
-26.7342
-21.9411
-15.8405
-6.57672
-1.53601
7.37795
13.0743
18.1907
22.0746
24.1428
24.2246
22.6598
19.9383
16.5114
12.6994
8.56731
4.27943
0.16716
-4.99394
-10.8764
-17.5541
-24.4205
-31.3277
-37.7565
-43.4194
-47.7219
-50.3979
-51.2984
-50.3667
-48.3992
-45.2073
-43.5507
-40.7251
-36.861
-31.7781
-25.5486
-18.49
-11.8493
-5.13181
1.64706
7.44804
12.422
15.5868
16.9881
17.2952
16.5309
14.8183
13.3638
14.4971
18.7556
21.6523
22.7693
23.6749
24.4338
24.6465
23.8172
22.1361
20.4292
18.4913
15.9054
12.7093
9.42018
6.59996
4.25457
2.33292
0.795273
-0.278165
-0.916925
-1.13599
-1.02072
-0.654526
-0.192899
0.364716
0.923679
1.45242
1.88504
2.24337
2.46761
2.60525
2.69385
2.58108
2.5214
2.20856
1.48708
0.555277
0.605737
0.652095
0.699923
0.75339
0.811381
0.87384
0.940562
1.0098
1.0848
1.16149
1.24592
1.33222
1.42626
1.52413
1.62725
1.73407
1.85042
1.97184
2.10308
2.24107
2.38674
2.5376
2.69984
2.8639
3.04364
3.22205
3.41864
3.61632
3.82692
4.05005
4.27146
4.52618
4.7575
5.04824
5.29255
5.62197
5.88629
6.25589
6.55274
6.95658
7.31858
7.72312
8.21971
8.5777
9.27989
9.61038
10.4877
10.9989
11.8062
12.9421
13.3996
15.3418
15.9802
17.7795
20.731
20.5759
27.4144
28.1116
32.365
48.3984
40.3364
67.6531
118.154
84.7889
18.6239
-22.9086
-35.7913
-34.6586
2.19618
14.2452
5.28843
20.9456
26.796
22.6774
16.0155
12.3816
10.4483
9.61492
9.46828
9.49474
9.48605
8.9721
7.95232
6.23091
4.10157
1.59628
-0.678184
-3.91851
-6.94929
-10.099
-13.2701
-15.9839
-17.6452
-17.6365
-15.6124
-11.6078
-5.24161
0.569959
6.2032
12.2485
16.1008
19.4166
21.1111
21.3097
20.2129
18.1588
15.555
12.7649
10.0501
7.56755
5.16052
3.23918
1.20845
-1.23842
-4.0355
-6.9716
-10.2752
-13.6476
-16.5995
-18.6358
-19.3417
-18.555
-16.3638
-13.0743
-9.48303
-5.6387
-2.48825
1.74124
5.29895
8.41627
10.8413
12.3616
10.4985
3.02696
-14.3201
-13.616
-12.3299
-10.6515
-8.58111
-6.16005
-3.49571
-0.583992
2.53559
4.94703
8.18062
9.31794
10.3514
10.9346
11.0874
10.8735
10.3947
9.79091
9.14922
8.44651
7.70008
6.96465
6.29025
5.67809
5.09877
4.5417
4.00547
3.50275
3.03522
2.61652
2.24854
1.93407
1.67424
1.46828
1.30993
1.19363
1.10882
1.05358
1.00126
0.964329
0.923211
0.856495
0.768279
0.668311
0.260097
-3.48192
-3.31328
-3.30024
-3.25669
-3.28195
-3.31752
-3.3159
-3.3423
-3.35915
-3.3148
-3.24274
-3.18658
-3.04973
-3.00292
-2.84514
-2.7108
-2.41416
-2.25643
-1.91494
-1.76412
-1.42364
-1.29659
-1.02203
-0.948721
-0.711927
-1.0724
-0.859059
-0.802429
-0.682134
-0.560655
-0.39499
-0.326163
-0.222004
-0.199401
-0.160754
-0.13794
-0.10668
-0.0701264
-0.0547638
-0.0329058
0.0471736
0.188545
0.25757
0.28932
0.370161
0.394446
0.47899
0.47925
0.445755
0.320378
0.592439
0.422949
0.361582
0.242085
0.172643
0.11868
0.0699027
-0.00526492
-0.0442891
-0.106115
-0.159475
-0.171182
-0.169205
-0.171732
-0.189125
-0.158124
-0.0810518
-0.0328506
0.032729
0.0598396
0.0775944
0.074899
0.023961
-0.0376095
-0.194653
1.25297
1.09873
0.742864
0.643338
0.436557
0.255656
0.0957029
-0.0780977
-0.220974
-0.35304
-0.477548
-0.569716
-0.593388
-0.59726
-0.610069
-0.60281
-0.569515
-0.544194
-0.503425
-0.492574
-0.489794
-0.506506
-0.582228
-0.641597
-0.801395
1.9081
1.59712
1.16805
1.03336
0.749157
0.472388
0.244062
0.00736239
-0.206992
-0.40137
-0.582352
-0.72006
-0.788821
-0.817208
-0.848612
-0.848004
-0.831804
-0.820739
-0.800663
-0.800589
-0.802111
-0.827806
-0.903931
-0.970512
-1.11915
2.49961
2.13095
1.69722
1.55374
1.10562
0.847851
0.549665
0.254699
-0.0118617
-0.294978
-0.44167
-0.599402
-0.797319
-0.832449
-0.866282
-0.878794
-0.874851
-0.873946
-0.87
-0.873157
-0.881997
-0.908614
-0.989909
-1.05363
-1.2085
3.15554
2.73704
2.25103
2.12617
1.64124
1.32925
0.970601
0.644113
0.272204
0.0694954
-0.253981
-0.43854
-0.586834
-0.67256
-0.723133
-0.749588
-0.758595
-0.770009
-0.778233
-0.7871
-0.806377
-0.836902
-0.925026
-0.987101
-1.1672
3.88116
3.4423
3.00255
2.72563
2.3158
1.90173
1.50978
1.09198
0.717604
0.414139
0.0848552
-0.133342
-0.293013
-0.401277
-0.464996
-0.507958
-0.528771
-0.556713
-0.575824
-0.594629
-0.629109
-0.66539
-0.765289
-0.85613
-1.05553
4.72271
4.28584
3.84112
3.43587
3.00782
2.53167
2.05792
1.6245
1.20527
0.807876
0.554521
0.240162
0.0745131
-0.0483918
-0.122304
-0.184525
-0.216824
-0.259932
-0.304471
-0.340248
-0.395077
-0.442423
-0.568874
-0.699125
-0.927735
5.65565
5.16452
4.6913
4.22005
3.72839
3.18166
2.66808
2.19758
1.75915
1.36231
1.02692
0.769015
0.534706
0.39447
0.299506
0.210083
0.158474
0.0822981
0.027852
-0.0458245
-0.1145
-0.176827
-0.353249
-0.500843
-0.785349
6.5754
6.05187
5.54932
5.01893
4.43825
3.88335
3.35042
2.8513
2.39821
1.97623
1.62207
1.33785
1.08929
0.941787
0.784387
0.67212
0.590862
0.475683
0.409126
0.296419
0.21707
0.132224
-0.0897269
-0.257652
-0.591586
7.39738
6.86023
6.35076
5.74135
5.15485
4.63729
4.10249
3.5717
3.07613
2.63078
2.25647
1.94838
1.70353
1.50592
1.32346
1.19408
1.07245
0.914358
0.832892
0.687565
0.601119
0.477686
0.219207
0.028781
-0.355074
7.98563
7.46718
6.97803
6.38462
5.86482
5.33916
4.80323
4.26472
3.74865
3.29175
2.90106
2.5902
2.33284
2.11425
1.90972
1.737
1.56353
1.41976
1.29788
1.12203
1.02301
0.86285
0.572581
0.356675
-0.0842623
8.15069
7.706
7.29657
6.87971
6.40376
5.90439
5.38881
4.86414
4.3573
3.90989
3.53019
3.22871
2.9648
2.73318
2.49859
2.30618
2.08178
1.94894
1.78909
1.59728
1.48108
1.27647
0.974731
0.720465
0.212393
7.70243
7.40804
7.23496
6.99265
6.6304
6.21236
5.75738
5.28198
4.82095
4.41808
4.08208
3.81006
3.55796
3.32542
3.07334
2.87031
2.63293
2.4817
2.26378
2.13483
1.96786
1.70586
1.44056
1.09847
0.524485
6.58651
6.5
6.62244
6.56169
6.3736
6.10139
5.76705
5.39764
5.03701
4.72974
4.4782
4.26981
4.05738
3.84621
3.59891
3.40186
3.16266
3.01141
2.77094
2.67139
2.44597
2.15676
1.90287
1.53368
0.850736
5.01644
5.0814
5.31366
5.48075
5.52197
5.45695
5.30857
5.11154
4.91656
4.76479
4.64756
4.54394
4.40654
4.24773
4.03409
3.86704
3.64663
3.51014
3.28379
3.203
2.87245
2.6556
2.37046
1.96953
1.1981
3.39428
3.57843
3.71872
4.0184
4.25443
4.39139
4.44633
4.45504
4.46735
4.51307
4.5677
4.60163
4.5706
4.49558
4.3464
4.23669
4.06005
3.95857
3.75285
3.72193
3.32092
3.11636
2.81147
2.3962
1.55961
2.11849
2.42485
2.5618
2.77275
3.0488
3.28428
3.47492
3.65162
3.8531
4.0877
4.31026
4.48277
4.56618
4.59109
4.52771
4.4971
4.38671
4.34033
4.16469
4.19969
3.7703
3.54423
3.20782
2.80745
1.92732
1.47453
1.7608
1.99949
2.13972
2.30393
2.5022
2.7283
2.99228
3.31707
3.68338
4.02377
4.29499
4.46714
4.58002
4.60291
4.6581
4.62586
4.64805
4.51357
4.60494
4.22216
3.94211
3.53179
3.22284
2.29958
1.54402
1.6882
1.85206
2.02638
2.1015
2.16132
2.35658
2.64447
3.02792
3.45855
3.84878
4.15707
4.3685
4.53351
4.62128
4.7505
4.79325
4.88605
4.80369
4.87977
4.70701
4.40199
3.80374
3.55169
2.65003
2.31075
2.22714
2.2031
2.24166
2.3125
2.24783
2.31692
2.61927
3.02484
3.47038
3.85282
4.14086
4.34024
4.51486
4.63477
4.81315
4.91468
5.06836
5.04192
5.10798
5.08703
4.78891
4.07949
3.83274
2.95671
3.76301
3.37814
3.08141
2.88056
2.7921
2.70838
2.58089
2.86365
3.27355
3.70169
4.03483
4.2605
4.40903
4.5583
4.679
4.87837
5.01607
5.2134
5.23382
5.30064
5.38003
5.11781
4.3402
4.0861
3.20933
5.93943
5.17195
4.52035
3.99441
3.63528
3.41366
3.2001
3.30405
3.72643
4.11146
4.36196
4.49523
4.56793
4.66911
4.76787
4.96487
5.11602
5.33773
5.38839
5.45929
5.60736
5.38606
4.57694
4.32671
3.39973
8.89231
7.65939
6.56467
5.63467
4.91352
4.43876
4.10119
3.95603
4.35156
4.66061
4.79489
4.81243
4.79442
4.83543
4.89889
5.07731
5.22315
5.45235
5.513
5.58689
5.77832
5.59524
4.77969
4.54526
3.53864
12.5579
10.8422
9.22169
7.82418
6.66855
5.84244
5.29403
4.94315
5.12277
5.31667
5.2972
5.17933
5.0624
5.03852
5.06048
5.20993
5.33757
5.56168
5.6125
5.68789
5.89983
5.75287
4.93913
4.70905
3.65058
16.2782
14.2772
12.3298
10.4906
8.87041
7.63495
6.78621
6.20296
6.00828
6.04716
5.83411
5.56584
5.34725
5.25861
5.23746
5.35241
5.45367
5.66455
5.68875
5.76612
5.97547
5.87104
5.04598
4.81584
3.73306
19.8973
17.7297
15.6557
13.5672
11.5872
9.92964
8.70666
7.8108
7.17109
6.89649
6.42213
5.98126
5.6542
5.49841
5.43159
5.50655
5.57407
5.76561
5.74709
5.83315
6.00736
5.97546
5.09037
4.86708
3.78982
22.999
20.7874
18.5546
16.4144
14.3461
12.4287
10.8806
9.63487
8.62391
7.78222
6.98981
6.37316
5.94452
5.72798
5.6189
5.65244
5.6839
5.85263
5.77912
5.89904
5.97162
6.02227
5.0442
4.84123
3.80298
23.2969
21.5829
19.7171
17.7969
15.9268
14.0809
12.4544
11.0612
9.68543
8.3767
7.36343
6.62834
6.13638
5.88427
5.74896
5.74899
5.75145
5.89768
5.78247
5.90431
5.89138
5.93719
4.96252
4.73734
3.76885
17.8025
17.48
16.8951
16.1203
15.007
13.7537
12.4258
11.1646
9.71564
8.36223
7.35756
6.63175
6.14686
5.90857
5.78029
5.7663
5.75938
5.89242
5.74717
5.8381
5.75807
5.75839
4.81442
4.57543
3.64859
9.93221
10.6894
11.1922
11.3797
11.2161
10.7087
10.0782
9.2916
8.40273
7.54853
6.82788
6.29887
5.93492
5.77925
5.70289
5.69524
5.6969
5.82278
5.6544
5.69876
5.55751
5.48551
4.59339
4.35831
3.42973
1.57552
2.90652
4.13135
5.16351
5.93086
6.41331
6.66208
6.70277
6.55483
6.26104
5.9422
5.76289
5.59462
5.55271
5.55107
5.52306
5.55141
5.66064
5.47763
5.48182
5.27896
5.12039
4.30432
4.07552
3.10604
-3.43975
-2.2389
-0.997462
0.220514
1.34647
2.3166
3.1313
3.81935
4.31664
4.59785
4.74488
4.86485
4.89843
4.9752
5.05422
5.23983
5.32009
5.3856
5.21219
5.1646
4.89978
4.66902
3.95126
3.7142
2.65596
-5.48354
-4.67676
-3.76568
-2.77318
-1.75396
-0.764746
0.201039
1.15242
2.0052
2.69025
3.21306
3.59721
3.85006
4.08368
4.30869
4.60887
4.69237
4.96159
4.86747
4.73317
4.41707
4.14287
3.5368
3.24192
2.06323
-4.93098
-4.59236
-4.14219
-3.57217
-2.91524
-2.20854
-1.43803
-0.585345
0.280645
1.08555
1.78541
2.35105
2.77428
3.16715
3.51486
3.75105
3.85422
4.25886
4.17875
4.18364
3.86089
3.50737
3.08542
2.57714
1.32717
-2.28744
-2.49653
-2.53632
-2.42607
-2.20299
-1.89896
-1.50236
-0.973122
-0.353228
0.310015
0.964324
1.54493
2.01358
2.48079
2.8609
3.03637
3.15414
3.50071
3.38099
3.37292
3.06495
2.85886
2.30618
1.84041
0.511924
0.799163
0.493091
0.207542
0.000882501
-0.122138
-0.179666
-0.151802
0.00712238
0.270784
0.636145
1.07033
1.49479
1.85469
2.26306
2.57519
2.66857
2.74131
3.01373
2.77478
2.56135
2.35189
1.99773
1.41399
0.939821
-0.421103
4.01498
3.61913
3.23156
2.87445
2.56565
2.30586
2.08834
1.9394
1.86408
1.90355
2.05274
2.23086
2.38006
2.63106
2.79897
2.75782
2.69237
2.8818
2.45334
2.08012
1.70251
1.16196
0.408249
-0.0768151
-1.50898
6.79891
6.50294
6.13104
5.71776
5.29573
4.88556
4.50691
4.19545
3.90426
3.70368
3.6084
3.54012
3.45238
3.50848
3.48571
3.26292
3.00094
3.04784
2.40719
1.70878
1.2012
0.41666
-0.574176
-1.19396
-2.69135
8.04244
7.92338
7.72354
7.48337
7.19857
6.8323
6.46106
6.1092
5.71973
5.39138
5.14125
4.89028
4.61249
4.50178
4.28926
3.88394
3.42627
3.28525
2.44094
1.63165
0.400477
-0.246709
-1.5458
-2.42564
-3.93402
7.3127
7.45604
7.48847
7.42832
7.31594
7.12125
6.90693
6.67612
6.34906
6.05188
5.78524
5.47311
5.1194
4.92669
4.58341
4.06529
3.48283
3.17348
2.1687
1.2957
-0.263803
-1.20773
-2.96273
-3.70775
-5.2459
4.68007
5.09867
5.32473
5.41937
5.51493
5.51509
5.49677
5.44979
5.25684
5.07961
4.89041
4.62727
4.32252
4.15092
3.78105
3.27072
2.68586
2.30075
1.22724
0.415764
-1.28539
-2.39839
-4.45773
-5.37235
-6.51104
1.22943
1.65873
1.94647
2.1565
2.42318
2.58009
2.69855
2.81489
2.73642
2.68862
2.61592
2.47711
2.31333
2.24609
1.95277
1.55977
1.0833
0.727913
-0.306758
-0.946505
-2.62312
-3.77422
-5.83517
-6.70262
-7.929
-2.65698
-1.9478
-1.70334
-1.40697
-1.12957
-0.897215
-0.710434
-0.508912
-0.506713
-0.414895
-0.34174
-0.306493
-0.281589
-0.199439
-0.353588
-0.569154
-0.878864
-1.13655
-2.05872
-2.47374
-4.04292
-5.1281
-7.13145
-7.8912
-8.92206
-5.119
-4.94595
-4.7513
-4.49248
-4.28034
-4.06666
-3.82143
-3.5558
-3.54229
-3.31608
-3.10863
-2.90913
-2.71604
-2.49768
-2.51155
-2.5512
-2.6971
-2.84582
-3.62773
-3.82504
-5.27114
-6.23949
-8.12
-8.75786
-9.49338
-6.14585
-6.1325
-6.14873
-6.12773
-6.03617
-5.91917
-5.7199
-5.57541
-5.49224
-5.27258
-5.02
-4.73765
-4.46041
-4.17079
-4.09527
-4.00857
-4.04064
-4.0846
-4.73951
-4.77158
-6.12073
-6.96129
-8.70216
-9.22604
-9.69121
-6.1106
-6.30956
-6.49192
-6.63007
-6.72897
-6.77031
-6.69014
-6.49876
-6.36158
-6.09987
-5.88202
-5.6088
-5.34299
-5.05853
-4.96297
-4.8174
-4.80394
-4.81447
-5.40105
-5.33186
-6.60433
-7.32095
-8.91727
-9.33675
-9.5287
-5.229
-5.57874
-5.87891
-6.07881
-6.30287
-6.43444
-6.45732
-6.35813
-6.27457
-6.08948
-5.9503
-5.73747
-5.54168
-5.31184
-5.24329
-5.08763
-5.07985
-5.06955
-5.59754
-5.4796
-6.69183
-7.32351
-8.76918
-9.11453
-9.06047
-4.17968
-4.55028
-4.8678
-5.11224
-5.3765
-5.48211
-5.65822
-5.65027
-5.612
-5.49385
-5.43635
-5.30058
-5.19956
-5.04659
-5.03561
-4.90525
-4.94235
-4.94123
-5.42559
-5.32506
-6.4764
-7.04189
-8.34677
-8.62379
-8.35571
-3.10674
-3.45175
-3.69666
-3.98519
-4.12996
-4.32284
-4.59676
-4.66821
-4.69216
-4.63747
-4.64696
-4.57972
-4.56257
-4.48668
-4.52702
-4.43988
-4.52419
-4.54505
-4.99259
-4.94845
-6.01219
-6.52485
-7.69034
-7.90282
-7.44914
-2.06472
-2.35298
-2.48741
-2.76732
-2.88245
-3.12132
-3.41516
-3.58524
-3.67287
-3.67832
-3.73635
-3.72119
-3.7636
-3.7492
-3.82449
-3.77899
-3.89705
-3.93794
-4.34495
-4.42567
-5.28665
-5.78768
-6.80355
-6.96424
-6.33394
-1.06212
-1.24482
-1.29817
-1.53877
-1.6652
-1.94201
-2.25664
-2.48421
-2.61476
-2.66933
-2.75334
-2.77101
-2.84229
-2.8655
-2.95205
-2.93861
-3.06144
-3.12808
-3.46661
-3.60169
-4.40121
-4.80623
-5.6396
-5.80334
-4.90939
-0.0488349
-0.077272
-0.155995
-0.269985
-0.500574
-0.767391
-1.09651
-1.33222
-1.46543
-1.55021
-1.62967
-1.66113
-1.72402
-1.75882
-1.82676
-1.84264
-1.91937
-2.01212
-2.28315
-2.50706
-3.18405
-3.42887
-4.12056
-4.11336
-3.21631
1.20884
1.25048
1.07594
1.0358
0.776679
0.551633
0.224003
0.0703843
0.000136532
-0.101914
-0.133277
-0.170299
-0.18929
-0.225971
-0.251111
-0.276024
-0.336087
-0.436405
-0.705884
-0.928378
-1.47773
-1.68524
-2.11984
-1.95401
-0.922122
2.2137
2.31788
2.34476
2.36117
2.27825
2.15151
2.00196
1.92263
1.90561
1.84753
1.81891
1.7735
1.73498
1.68336
1.62473
1.56596
1.44011
1.3307
1.0475
0.866396
0.457509
0.42424
0.659462
1.10001
2.14348
0.776815
1.3352
1.71719
1.87067
1.92904
1.93033
1.88001
1.82646
1.76849
1.69794
1.63077
1.56341
1.50068
1.43825
1.37125
1.31075
1.23072
1.1789
1.08419
1.05649
1.07066
1.11498
1.53195
1.62448
2.30188
)
;

boundaryField
{
    inlet
    {
        type            calculated;
        value           uniform 0;
    }
    outlet
    {
        type            calculated;
        value           nonuniform List<scalar> 
57
(
-0.711927
0.320378
-0.194653
-0.801395
-1.11915
-1.2085
-1.1672
-1.05553
-0.927735
-0.785349
-0.591586
-0.355074
-0.0842623
0.212393
0.524485
0.850736
1.1981
1.55961
1.92732
2.29958
2.65003
2.95671
3.20933
3.39973
3.53864
3.65058
3.73306
3.78982
3.80298
3.76885
3.64859
3.42973
3.10604
2.65596
2.06323
1.32717
0.511924
-0.421103
-1.50898
-2.69135
-3.93402
-5.2459
-6.51104
-7.929
-8.92206
-9.49338
-9.69121
-9.5287
-9.06047
-8.35571
-7.44914
-6.33394
-4.90939
-3.21631
-0.922122
2.14348
2.30188
)
;
    }
    upperWall
    {
        type            calculated;
        value           nonuniform List<scalar> 
223
(
-0.00248653
0.00267822
-0.00222255
0.00775659
0.00517613
0.0258084
0.0266339
0.0628327
0.0654524
0.122042
0.138919
0.201685
0.183668
0.285725
0.305673
0.421321
0.414744
0.483159
0.555277
0.605737
0.652095
0.699923
0.75339
0.811381
0.87384
0.940562
1.0098
1.0848
1.16149
1.24592
1.33222
1.42626
1.52413
1.62725
1.73407
1.85042
1.97184
2.10308
2.24107
2.38674
2.5376
2.69984
2.8639
3.04364
3.22205
3.41864
3.61632
3.82692
4.05005
4.27146
4.52618
4.7575
5.04824
5.29255
5.62197
5.88629
6.25589
6.55274
6.95658
7.31858
7.72312
8.21971
8.5777
9.27989
9.61038
10.4877
10.9989
11.8062
12.9421
13.3996
15.3418
15.9802
17.7795
20.731
20.5759
27.4144
28.1116
32.365
48.3984
40.3364
67.6531
118.154
84.7889
18.6239
-22.9086
-35.7913
-34.6586
2.19618
14.2452
5.28843
20.9456
26.796
22.6774
16.0155
12.3816
10.4483
9.61492
9.46828
9.49474
9.48605
8.9721
7.95232
6.23091
4.10157
1.59628
-0.678184
-3.91851
-6.94929
-10.099
-13.2701
-15.9839
-17.6452
-17.6365
-15.6124
-11.6078
-5.24161
0.569959
6.2032
12.2485
16.1008
19.4166
21.1111
21.3097
20.2129
18.1588
15.555
12.7649
10.0501
7.56755
5.16052
3.23918
1.20845
-1.23842
-4.0355
-6.9716
-10.2752
-13.6476
-16.5995
-18.6358
-19.3417
-18.555
-16.3638
-13.0743
-9.48303
-5.6387
-2.48825
1.74124
5.29895
8.41627
10.8413
12.3616
10.4985
3.02696
-14.3201
-13.616
-12.3299
-10.6515
-8.58111
-6.16005
-3.49571
-0.583992
2.53559
4.94703
8.18062
9.31794
10.3514
10.9346
11.0874
10.8735
10.3947
9.79091
9.14922
8.44651
7.70008
6.96465
6.29025
5.67809
5.09877
4.5417
4.00547
3.50275
3.03522
2.61652
2.24854
1.93407
1.67424
1.46828
1.30993
1.19363
1.10882
1.05358
1.00126
0.964329
0.923211
0.856495
0.768279
0.668311
0.260097
0.776815
1.3352
1.71719
1.87067
1.92904
1.93033
1.88001
1.82646
1.76849
1.69794
1.63077
1.56341
1.50068
1.43825
1.37125
1.31075
1.23072
1.1789
1.08419
1.05649
1.07066
1.11498
1.53195
1.62448
2.30188
)
;
    }
    lowerWall
    {
        type            calculated;
        value           nonuniform List<scalar> 
250
(
0.00211439
-0.00216841
0.000766236
-0.0148407
-0.0147401
-0.0612027
-0.0984997
-0.0889087
-0.180798
-0.226594
-0.325313
-0.410567
-0.518947
-0.683109
-0.869283
-0.892787
-1.35241
-1.73383
0.00264003
0.0427756
0.0556691
0.0419498
-0.234465
-0.822413
-0.908192
-0.868302
-0.678853
-0.456979
-0.22663
0.109499
0.194931
0.197265
0.0461921
-0.110051
-0.280319
-0.589467
-0.771348
-0.93194
-1.09062
-1.20539
-1.201
-1.2502
-0.980869
-0.998965
-0.742167
0.00264003
-0.0912408
-0.16198
-0.284557
-0.416689
-0.544647
-0.668696
-0.789125
-0.891682
-0.948176
-0.925889
-0.791936
-0.517249
-0.0789828
0.559722
1.44867
2.61536
3.77598
5.13797
6.63248
8.16376
9.60743
10.8075
11.7268
12.1306
12.6489
11.4536
10.0033
8.54763
5.90001
6.33289
6.53392
5.67831
5.51666
3.15253
-1.86543
-1.87715
0.143488
3.26407
31.5303
48.4954
31.2568
25.1275
19.0451
14.1338
10.189
6.6243
3.78226
0.964803
-1.44806
-4.4046
-4.82951
-4.40436
-9.35962
-8.8137
-11.3289
-11.0209
-13.0041
-13.3479
-14.4767
-14.4095
-15.1843
-16.0921
-16.0932
-16.9785
-16.4373
-17.422
-16.6701
-17.22
-16.7341
-16.606
-16.5489
-15.8954
-15.9424
-15.294
-15.1533
-14.6321
-14.5557
-14.1982
-13.9723
-13.9787
-13.8096
-14.2248
-14.5656
-15.1793
-16.6979
-16.333
-16.0078
-15.2161
-13.9407
-11.6959
-9.09464
-6.07417
-1.80043
0.330652
2.8625
4.95552
4.4353
-1.39703
-13.8961
-13.275
-6.72238
2.95016
6.08263
9.16042
11.6493
14.7887
18.3145
21.1161
22.8796
24.1869
25.5825
26.9239
27.467
27.8158
28.3013
28.6721
28.8063
28.8266
28.1868
27.3893
26.2978
24.8302
22.9305
20.6581
18.1064
15.3482
12.5053
9.66447
6.87115
4.19978
1.68778
-0.625816
-2.6877
-4.4692
-5.7328
-6.25117
-7.37756
-7.51696
-7.29964
-6.78811
-5.92952
-5.29943
-3.39213
-1.07041
0.653347
2.25454
3.40792
4.03188
4.08707
3.63479
2.85425
1.90498
0.878002
-0.157796
-1.17943
-2.21026
-3.22702
-4.10489
-4.57151
-4.6613
-4.74844
-4.96077
-5.45067
-5.46632
-5.42827
-5.32587
-5.15394
-5.00659
-4.89375
-4.76095
-4.66745
-4.44418
-4.2072
-4.15298
-4.0529
-4.00204
-3.88409
-3.82091
-3.7831
-3.48192
-3.31328
-3.30024
-3.25669
-3.28195
-3.31752
-3.3159
-3.3423
-3.35915
-3.3148
-3.24274
-3.18658
-3.04973
-3.00292
-2.84514
-2.7108
-2.41416
-2.25643
-1.91494
-1.76412
-1.42364
-1.29659
-1.02203
-0.948721
-0.711927
)
;
    }
    frontAndBack
    {
        type            empty;
    }
}


// ************************************************************************* //
