/*--------------------------------*- C++ -*----------------------------------*\
| =========                 |                                                 |
| \\      /  F ield         | OpenFOAM: The Open Source CFD Toolbox           |
|  \\    /   O peration     | Version:  2112                                  |
|   \\  /    A nd           | Website:  www.openfoam.com                      |
|    \\/     M anipulation  |                                                 |
\*---------------------------------------------------------------------------*/
FoamFile
{
    version     2.0;
    format      ascii;
    arch        "LSB;label=32;scalar=64";
    class       volScalarField;
    location    "0.04";
    object      ddt0(k);
}
// * * * * * * * * * * * * * * * * * * * * * * * * * * * * * * * * * * * * * //

dimensions      [0 2 -3 0 0 0 0];

internalField   nonuniform List<scalar> 
12885
(
-644.023
1147.05
1770.99
1045.3
-2466.46
-4210.51
-656.666
2333.36
3805.77
3538.17
1968.97
-5919.33
-7239.06
-3225.46
1584.48
5240.98
6838.62
5954.66
2209.74
-7085.71
-7784.03
-6063.9
-3073.85
382
3730.66
5873.21
5975.97
4287.95
1771.35
-666.581
-2489.9
-3517.11
-3832.35
-3517.94
-2864.85
-1883.92
-901.119
77.8541
1173.86
1444.62
-38.2405
68.9576
96.6013
62.9251
-30.735
-395.553
-172.309
271.824
445.368
370.92
173.515
-185.454
-1478.2
-1096.17
52.3299
1146.66
1667.08
1670.28
1101.13
-701.49
-2069.03
-2601.01
-2287.77
-1171.07
402.978
1949.17
2836.83
2806.13
2094.35
1069.45
15.1028
-922.801
-1682.11
-2134.43
-2327.97
-2112.14
-1784.75
-1146.79
-474.12
94.7197
-4.28778
7.88527
9.81005
16.5844
3.91323
-24.6653
-22.213
-9.95433
25.7929
15.7809
-4.29689
-11.837
-41.2816
-132.405
-38.29
108.47
185.416
211.136
180.82
79.1367
-109.458
-353.891
-546.229
-565.877
-341.507
24.7359
422.906
691.182
800.54
747.741
581.815
343.186
15.2738
-294.296
-667.989
-901.741
-1118.38
-1136.2
-1061.62
-858.096
-0.470764
2.10385
2.99049
5.79552
1.41197
-4.51473
-7.56105
-4.59296
3.23253
-0.322101
-1.91208
2.05073
-6.06849
-12.3777
-0.545339
8.56562
23.286
37.2245
24.3747
11.0558
2.01262
-16.405
-40.2953
-85.2925
-79.4368
-46.6244
0.860484
58.9186
93.4122
112.36
108.322
109.18
74.526
31.0141
6.73102
-106.303
-149.865
-187.089
-257.843
-295.905
0.130383
1.10183
1.40318
2.38632
0.571407
-1.90806
-3.24948
-1.80034
0.67795
0.00385803
0.346738
1.11621
-1.93128
-2.29965
0.410654
1.75188
5.96912
9.73109
7.44721
3.80479
2.04862
-2.72912
-10.779
-13.1002
-15.852
-15.629
-8.89129
-0.551517
5.71451
12.8101
15.7978
17.3924
17.8341
14.1616
16.4715
-0.676652
-8.17614
1.4362
-25.7965
-26.7971
0.123726
0.662429
0.788716
1.11247
0.219993
-0.988758
-1.55912
-0.876665
0.131819
0.166392
0.387105
0.344383
-0.645404
-0.563091
0.36815
1.06523
2.32848
3.2534
2.7281
1.45373
0.287466
-1.0412
-3.28561
-4.65684
-5.73332
-5.72127
-4.30752
-2.33385
-0.482873
1.63523
3.25129
4.60319
5.70874
5.80492
5.64428
5.10555
3.65549
3.14179
1.28495
0.067909
0.068177
0.379094
0.451881
0.542304
0.066265
-0.542911
-0.79131
-0.470604
-0.0256335
0.0792988
0.15124
0.0712917
-0.181154
-0.0330663
0.393027
0.754266
1.10435
1.22437
0.934435
0.394483
-0.159079
-0.763152
-1.44235
-1.96936
-2.30796
-2.31885
-1.91141
-1.27514
-0.560307
0.198941
0.921656
1.46876
1.96958
2.31499
2.55429
2.66298
2.49537
2.20757
1.91598
1.40923
0.0331591
0.198333
0.24523
0.257899
0.00389648
-0.30393
-0.415633
-0.269014
-0.075189
-0.0132881
0.00748166
-0.00658311
-0.00877423
0.141247
0.365962
0.522891
0.574272
0.483233
0.26068
-0.0182556
-0.279921
-0.522473
-0.737405
-0.891997
-0.966698
-0.932074
-0.773079
-0.532849
-0.255479
0.0372392
0.328843
0.596703
0.827078
1.00734
1.15315
1.24115
1.24732
1.20386
1.10105
0.914112
0.0155546
0.0934448
0.121236
0.10703
-0.0130663
-0.170199
-0.224135
-0.163231
-0.086389
-0.0617391
-0.0500541
-0.0214692
0.04906
0.175882
0.301302
0.355348
0.314405
0.189335
0.0202528
-0.143684
-0.270205
-0.355499
-0.402339
-0.413948
-0.393878
-0.342562
-0.262449
-0.164665
-0.0596427
0.0490203
0.161903
0.271189
0.368592
0.451584
0.549351
0.60805
0.621464
0.602689
0.555999
0.48098
0.00720358
0.0407677
0.0509699
0.0392358
-0.0187324
-0.0950575
-0.124075
-0.105111
-0.0816664
-0.0753834
-0.0618389
-0.0177192
0.0614638
0.157123
0.227251
0.236391
0.17811
0.0720261
-0.0475911
-0.148351
-0.212139
-0.236935
-0.229106
-0.198422
-0.154655
-0.105147
-0.054998
-0.00804196
0.0342235
0.0740836
0.126209
0.174017
0.212265
0.235336
0.25352
0.26536
0.26638
0.249256
0.230882
0.210607
0.00345123
0.0166385
0.0178922
0.0107085
-0.0163178
-0.0517596
-0.0698211
-0.0709609
-0.0706757
-0.0707844
-0.0546862
-0.00991041
0.0572946
0.12359
0.160881
0.153573
0.104696
0.0304259
-0.0477834
-0.110813
-0.147397
-0.155434
-0.139438
-0.107262
-0.0671437
-0.0257902
0.0120878
0.0433976
0.0666648
0.0792891
0.0865211
0.0910695
0.0920475
0.0862777
0.0623544
0.0476198
0.0427107
0.0445573
0.0523427
0.0649076
0.00208819
0.00661197
0.00531782
0.000713073
-0.0107695
-0.027752
-0.0393242
-0.0494171
-0.0608651
-0.0663617
-0.0508303
-0.00660848
0.0550252
0.109511
0.132894
0.116327
0.0674854
0.00322851
-0.0580242
-0.101542
-0.119378
-0.11126
-0.0831864
-0.0444573
-0.00435001
0.0302427
0.0555177
0.0700751
0.0736792
0.0655101
0.0411193
0.013065
-0.0119957
-0.0331136
-0.0484672
-0.0533519
-0.0501578
-0.0384701
-0.0186436
0.00755349
0.00113698
0.00313411
0.00210233
-0.0010318
-0.00646598
-0.0129193
-0.0196144
-0.0310601
-0.0472885
-0.0582606
-0.0485334
-0.00982848
0.0458351
0.0974424
0.119996
0.103328
0.0545516
-0.0087592
-0.0667185
-0.103595
-0.111484
-0.0912391
-0.0509363
-0.00248211
0.0423742
0.0751076
0.091648
0.091894
0.0783175
0.0541482
0.0231717
-0.0111871
-0.0309024
-0.0512305
-0.072777
-0.0732186
-0.0670712
-0.053609
-0.0334349
-0.00761269
0.00062471
0.00169482
0.00158603
0.000243529
-0.00229087
-0.00597319
-0.0095836
-0.0158692
-0.0253124
-0.030431
-0.0241138
2.04193e-05
0.0224736
0.0546571
0.0719688
0.0652238
0.0389228
0.00192236
-0.0340064
-0.058771
-0.0667017
-0.0573518
-0.0347122
-0.00540385
0.0234542
0.0460341
0.0589512
0.0607364
0.056091
0.0430022
0.0264961
0.00932148
-0.0056343
-0.0172488
-0.0244843
-0.0265124
-0.0235799
-0.0161498
-0.00488543
0.0094726
0.000215431
0.000689872
0.000819833
0.000364926
-0.00078412
-0.00286966
-0.00431125
-0.00591389
-0.00654007
-0.00587275
-0.00296251
0.00254454
0.00855555
0.0149411
0.0187759
0.0183203
0.0136552
0.00625188
-0.00173337
-0.0082464
-0.011916
-0.012279
-0.00969311
-0.00506171
0.000495774
0.00593215
0.010486
0.0137868
0.015855
0.0168232
0.0170967
0.0171112
0.0172571
0.0177988
0.0188952
0.0206009
0.0228673
0.0255664
0.028515
0.0314788
2.11002e-05
0.000202021
0.000358986
0.000280583
-6.10158e-05
-0.000471799
-0.000537998
-0.000121175
0.000750513
0.00175532
0.00211719
0.00140702
-0.000253883
-0.00212407
-0.00333209
-0.00318288
-0.00148371
0.00140351
0.00470868
0.00754021
0.00919738
0.00934896
0.00806884
0.00575955
0.00301411
0.000465074
-0.00134333
-0.00204137
-0.00147408
0.00030645
0.00309081
0.0065722
0.0104035
0.0142431
0.0177882
0.0207952
0.0230873
0.0245538
0.0251414
0.0248305
-1.76593e-05
8.46331e-05
0.0002854
0.000455878
0.000518494
0.000514147
0.00056801
0.000664322
0.000778763
0.000536468
9.5821e-05
-0.00076708
-0.00192519
-0.00304183
-0.00370334
-0.00358179
-0.00255116
-0.000763756
0.00142095
0.0035637
0.00526563
0.00626122
0.00645899
0.00593268
0.00487817
0.00355478
0.00222698
0.00111768
0.000379423
8.32822e-05
0.000225181
0.00074252
0.00153543
0.0024878
0.00348518
0.00442789
0.00523933
0.00587007
0.00629759
0.00652221
2.86426e-05
0.000160458
0.000343455
0.000469438
0.000406102
0.00010574
-0.000359104
-0.000636862
-0.000922185
-0.00108262
-0.00109915
-0.00108457
-0.00100785
-0.000856495
-0.000673458
-0.00054283
-0.000544036
-0.00070409
-0.00097665
-0.00125675
-0.00142113
-0.00137386
-0.00107903
-0.000571164
5.64013e-05
0.000677837
0.00116574
0.00141779
0.00137337
0.00102048
0.000392841
-0.000439323
-0.00138281
-0.0023367
-0.00320616
-0.0039129
-0.00440111
-0.00463919
-0.00461755
-0.00434394
0.000163691
0.000530052
0.000787899
0.000729531
0.00010137
-0.00113056
-0.00259121
-0.00322138
-0.00335165
-0.00235683
-0.00124503
-0.000224048
0.000577811
0.00111249
0.00131727
0.00109107
0.000358843
-0.000858973
-0.00241312
-0.00404688
-0.00546296
-0.00640831
-0.00674439
-0.00647852
-0.00574867
-0.00477207
-0.00377983
-0.00295993
-0.00242309
-0.00219607
-0.00224563
-0.00252592
-0.00300121
-0.00364639
-0.00443997
-0.0053604
-0.00636956
-0.00743689
-0.00851872
-0.00956673
0.000323455
0.000971509
0.0013402
0.0011719
-5.08139e-06
-0.00242747
-0.00536499
-0.00723478
-0.00691447
-0.00426222
-0.000267855
0.0031806
0.00470005
0.00384651
0.00123169
-0.0018226
-0.00395151
-0.0044089
-0.00336179
-0.00171598
-0.000638956
-0.00105027
-0.00328958
-0.007046
-0.0115177
-0.0156996
-0.0186812
-0.0198654
-0.0190577
-0.0164195
-0.0123984
-0.00763148
-0.00287062
0.00118282
0.00401404
0.00497454
0.0047257
0.00276625
-0.000623945
-0.0049704
0.000470669
0.00103791
0.0008544
0.00026437
-0.00101551
-0.00410362
-0.00879011
-0.0129562
-0.0120708
-0.00618687
0.00381286
0.0127121
0.0152224
0.00955553
-0.00168421
-0.0129433
-0.0185906
-0.0157496
-0.00562991
0.00725378
0.0173136
0.020234
0.0144162
0.00120311
-0.0159125
-0.0326125
-0.0450883
-0.0509835
-0.0495533
-0.0415208
-0.0310449
-0.0194359
-0.00808979
0.00175751
0.00921438
0.0137829
0.015361
0.0141379
0.0105248
0.00504672
0.000666974
-0.00032939
-0.0043762
-0.00835198
-0.00851855
-0.00800003
-0.0108908
-0.0165646
-0.0188754
-0.00989315
0.00672762
0.022556
0.0281622
0.0199905
0.00164487
-0.0183574
-0.0307553
-0.0299747
-0.0167024
0.00298743
0.0210141
0.0307605
0.0291417
0.0169413
-0.00213964
-0.023053
-0.0410711
-0.0528865
-0.0565902
-0.0546871
-0.0472508
-0.0350049
-0.0203587
-0.00573953
0.00703777
0.0168267
0.0230674
0.0256807
0.0249483
0.0213807
0.00275253
-0.00139481
-0.0179605
-0.0389106
-0.0383143
-0.0217313
-0.00722172
-0.00710447
-0.0169468
-0.0174709
0.00110935
0.0305566
0.0518588
0.0505942
0.0244208
-0.0159574
-0.0520443
-0.0676541
-0.057614
-0.0277568
0.0110372
0.0469769
0.0701338
0.0745644
0.0598674
0.0310551
-0.00436552
-0.0394759
-0.0694166
-0.0920942
-0.100662
-0.0975756
-0.0860234
-0.0690792
-0.0492858
-0.0286399
-0.00874737
0.00906215
0.0239877
0.0358377
0.0160368
0.0122518
-0.0306451
-0.11521
-0.124141
-0.0660529
0.00877126
0.0456732
0.0183089
-0.0315044
-0.0371952
0.0133717
0.0798834
0.115137
0.0888566
0.00638593
-0.0906534
-0.152426
-0.155944
-0.10908
-0.0246627
0.077603
0.171193
0.228306
0.231987
0.18809
0.115386
0.028392
-0.0620381
-0.145706
-0.216072
-0.271883
-0.312849
-0.33763
-0.343409
-0.327156
-0.287822
-0.23136
-0.162978
-0.0860063
0.080439
0.0903596
-0.0141837
-0.26935
-0.338318
-0.19269
0.0450793
0.224351
0.181252
-0.0391512
-0.187096
-0.138499
0.041762
0.231458
0.28557
0.14422
-0.0996052
-0.299217
-0.381178
-0.395834
-0.288757
-0.0357493
0.312797
0.64277
0.830017
0.848918
0.763071
0.574709
0.258859
-0.114619
-0.472456
-0.799365
-1.08165
-1.3073
-1.45708
-1.50405
-1.38803
-1.20496
-0.965025
-0.661729
0.317851
0.396618
0.123609
-0.633429
-0.886545
-0.536318
0.101361
0.734552
0.754948
0.0380924
-0.632381
-0.716483
-0.278883
0.444917
0.830457
0.481103
-0.170461
-0.639626
-0.643218
-1.10068
-1.30706
-0.794763
0.384598
1.78808
2.77591
3.00226
3.13453
3.1785
2.05336
0.484891
-0.761657
-2.10197
-3.4324
-4.63072
-5.62172
-6.30871
-6.35385
-5.60301
-4.23247
-2.56069
1.08102
1.34521
0.640654
-1.75027
-2.42965
-1.36097
0.282092
2.20058
2.66186
0.520797
-2.16768
-2.88672
-1.66798
1.64355
3.5496
1.27419
-1.20301
-2.34372
-3.65259
-6.07962
-7.70522
-4.28897
2.79633
9.84562
13.8884
12.5674
12.7723
16.1009
7.76716
-4.48427
-7.71694
-11.5576
-19.8523
-23.1046
-25.9569
-28.2298
-25.4153
-18.5277
-9.54836
1.64373
3.60516
5.2373
3.22477
-7.9955
-9.07822
-3.0086
4.0501
7.14454
10.4544
2.68156
-15.8171
-16.5858
-9.91594
11.1654
35.5015
13.779
-3.109
-8.23622
-27.3255
-56.8887
-86.4334
-52.1425
29.92
101.178
124.593
122.729
116.266
83.2025
26.5499
-66.6802
-123.995
-158.212
-186.855
-216.305
-229.068
-203.104
-129.256
-20.2209
98.359
206.811
16.8433
47.8006
13.8899
-130.073
-50.7771
61.3762
93.5236
84.2724
45.1689
-37.5578
-415.283
-323.131
91.2769
437.952
530.993
440.266
233.635
-62.7728
-968.827
-1116.77
-949.755
-445.412
396.619
1240.33
1595.19
1456.85
1168.38
454.697
-738.429
-1357.35
-1610.27
-1662.67
-1596.39
-1374.71
-927.172
-228.941
608.31
1390.02
1982.28
2269.13
277.439
991.693
-180.718
-2496.17
-1099.35
794.701
1920.19
2022.41
1453.19
-881.665
-5046.64
-2635.26
39.7965
2279.39
3604.8
3814.15
2903.68
-567.894
-6572.41
-5699.15
-3598.93
-856.853
1846.19
4073.47
5538.88
5978.61
4995.36
311.095
-3498.19
-5420.2
-5919.81
-5394.11
-4177.68
-2492.03
-539.824
1424.58
3146.48
4376.31
5018.52
5013.54
-3.33924
-3.33143
-3.31528
-3.28935
-3.25171
-3.19921
-3.1276
-3.04377
-2.95214
-2.82012
-2.64522
-2.42513
-2.15488
-1.83061
-1.44556
-0.993472
-0.477143
0.0923109
0.7051
1.35482
2.02926
2.70716
3.35176
3.91534
4.372
4.71434
4.95089
5.03237
4.99713
4.78668
4.43497
3.82583
3.24215
1.95013
1.42756
0.617739
-0.643707
-1.3224
-1.63081
-1.81065
-1.24647
-0.905174
-0.431517
2.53942
-2.3119
-12.7437
-28.4961
-68.0558
-72.847
-63.3877
-59.4917
-83.3196
-179.832
-286.406
-359.14
-451.583
-535.969
-612.26
-679.542
-733.423
-774.456
-803.354
-821.301
-829.75
-830.028
-823.202
-810.135
-791.846
-768.678
-741.156
-709.552
-674.625
-635.347
-592.988
-549.713
-505.427
-473.504
-401.658
-353.357
-325.834
-269.323
-212.413
-172.757
-113.873
-67.479
-22.4601
29.5755
73.529
123.087
169.119
214.487
258.928
299.522
337.878
372.628
403.837
431.545
454.873
472.639
483
485.935
482.718
475.013
464.811
453.957
443.737
435.045
430.126
422.801
401.156
358.681
295.793
194.901
-76.2922
-170.81
-238.444
-299.776
-361.585
-429.387
-505.908
-579.897
-630.563
-667.958
-686.478
-688.02
-674.297
-642.503
-595.659
-543.013
-481.007
-404.425
-334.19
-267.829
-180.381
-112.093
-57.8672
36.481
121.653
156.177
214.596
287.582
346.216
400.929
453.556
503.473
550.853
596.676
640.796
685.665
735.443
792.878
857.83
923.85
977.89
1009.32
1012.87
936.64
786.019
616.864
465.885
345.429
253.649
184.499
132.272
92.6985
62.7973
40.4511
24.0582
12.3752
4.29664
-0.994165
-4.46673
-6.36283
-8.08655
-8.58273
-9.79896
-10.2719
-11.7183
-12.6035
-13.9474
-3.38941
-3.38125
-3.36483
-3.33851
-3.30025
-3.2473
-3.17659
-3.08774
-2.97803
-2.83326
-2.64474
-2.40734
-2.11439
-1.76266
-1.34667
-0.868135
-0.338446
0.22893
0.820635
1.4227
2.02212
2.6012
3.14262
3.62968
4.06447
4.45118
4.79178
5.03028
5.23753
5.33993
5.3292
5.23411
5.03962
4.54394
4.1604
3.70687
2.86698
2.12988
1.49677
0.852641
0.651634
0.292734
0.157448
2.6345
-0.906862
-9.18886
-23.8223
-63.7284
-73.53
-68.8691
-68.0104
-92.7859
-169.523
-241.018
-279.494
-326.66
-365.616
-398.093
-422.274
-438.135
-446.928
-449.655
-447.367
-440.938
-431.111
-418.342
-402.989
-385.569
-366.075
-344.901
-322.023
-298.053
-272.344
-244.612
-219.561
-189.528
-174.864
-134.147
-108.672
-87.113
-59.387
-27.0477
-6.94354
24.9113
48.4585
72.5216
100.09
122.001
147.316
169.409
190.631
210.686
227.609
242.118
252.304
257.359
257.035
251.503
241.982
229.597
215.388
199.411
181.866
164.54
149.255
138.153
132.944
137.304
149.984
167.193
182.778
173.429
130.395
-27.4878
-31.937
-35.8391
-52.1117
-75.1047
-106.846
-149.729
-190.521
-232.273
-270.678
-298.081
-317.044
-328.044
-327.241
-316.141
-300.84
-278.524
-244.319
-212.526
-182.906
-136.548
-101.165
-78.1119
-24.5311
20.9337
48.7739
77.2219
109.228
153.974
186.611
218.194
249.04
278.709
307.991
336.526
365.48
398.371
437.088
480.447
525.759
566.943
591.645
584.972
531.794
444.505
348.192
263.049
195.801
145.161
107.453
79.2442
57.9955
41.9501
29.871
20.8376
14.1541
9.21932
5.62677
2.86028
0.912942
-1.08641
-2.21843
-4.03754
-4.95719
-6.72719
-7.68198
-9.42738
-3.51156
-3.5024
-3.48605
-3.46045
-3.42344
-3.37208
-3.3028
-3.21213
-3.09556
-2.94503
-2.75408
-2.51706
-2.23067
-1.88423
-1.47717
-1.01749
-0.524075
-0.0107658
0.507596
1.01475
1.50183
1.95557
2.34785
2.68925
2.9977
3.28327
3.54648
3.71391
3.94126
4.07788
4.16725
4.20982
4.21458
4.0838
3.93728
3.77374
3.37481
2.92586
2.45331
1.876
1.49803
0.979043
0.499364
2.75005
-0.281534
-7.66664
-22.4919
-62.3121
-73.8054
-72.0087
-73.9027
-100.788
-160.603
-207.203
-231.86
-257.892
-276.855
-290.019
-296.675
-298.104
-295.487
-289.592
-281.283
-270.974
-259.222
-246.143
-231.844
-216.649
-200.338
-183.461
-165.584
-147.135
-129.456
-106.635
-95.0717
-70.5935
-59.089
-34.5994
-18.278
0.0210659
15.0417
37.0267
49.5293
70.5285
84.4716
100.065
116.536
128.881
142.805
153.095
161.661
167.936
170.637
170.591
166.744
159.44
149.594
137.646
124.639
111.676
99.2375
87.0394
75.2194
64.8296
56.7079
52.2501
52.8112
60.723
76.2797
99.1217
124.812
125.737
98.4718
10.4568
19.1543
27.9633
23.4006
13.3465
-0.5669
-27.037
-47.9294
-74.236
-106.127
-130.114
-151.252
-170.543
-181.265
-184.592
-184.993
-179.929
-164.609
-149.399
-135.968
-108.694
-87.4281
-74.9148
-41.1093
-13.3184
7.45084
29.6758
49.1545
72.0336
102.471
124.021
146.075
167.225
188.803
210.054
231.169
255.457
284.696
316.84
350.959
385.199
407.62
401.644
364.275
305.339
241.239
184.726
140.12
106.547
81.497
62.6334
48.2408
37.1623
28.5901
21.9386
16.7541
12.6683
9.41465
6.69032
4.50507
2.31558
0.694097
-1.2789
-2.50091
-4.41031
-5.39981
-7.31785
-3.73101
-3.71866
-3.70162
-3.67661
-3.64115
-3.59186
-3.52446
-3.43448
-3.31706
-3.16635
-2.97672
-2.74319
-2.46054
-2.12618
-1.73875
-1.31656
-0.883337
-0.447807
-0.0269573
0.365867
0.72525
0.986329
1.20831
1.40716
1.59525
1.77456
1.9021
2.06554
2.20271
2.31961
2.42548
2.52155
2.61642
2.67883
2.72523
2.76122
2.68575
2.54544
2.3536
2.02443
1.76357
1.35337
0.708128
2.82652
-0.162388
-7.01596
-22.8355
-62.1129
-74.1653
-75.3455
-80.4129
-108.33
-153.373
-183.841
-199.91
-213.639
-220.474
-221.919
-218.478
-211.996
-203.493
-193.335
-182.372
-170.6
-158.501
-145.985
-133.014
-119.549
-105.519
-91.784
-77.9463
-60.9131
-52.2115
-32.5853
-23.6734
-6.11446
3.50337
20.0131
31.5711
45.378
54.6631
69.6023
77.2306
89.8377
96.8619
105.073
112.089
116.006
120.107
121.08
120.671
118.511
113.923
107.906
100.317
91.6805
83.0111
74.2711
65.8886
58.3273
51.4056
45.2017
39.7705
35.5776
32.951
32.4556
35.5532
43.6963
56.5904
75.7701
97.6718
95.1175
78.0959
34.8884
45.0516
51.3874
50.2516
46.5065
40.6943
25.3762
16.9812
2.79945
-20.7626
-35.7271
-51.8936
-72.2835
-85.7882
-95.1199
-103.961
-108.748
-105.323
-100.954
-97.983
-83.6797
-71.7315
-65.5003
-45.3611
-28.0717
-12.4591
3.14465
17.344
36.0914
49.5287
70.6553
87.8482
103.227
120.305
137.128
153.162
171.707
194.714
219.352
245.848
275.079
296.574
296.078
272.3
232.142
187.58
147.71
115.869
91.6109
73.197
58.9755
47.7486
38.7533
31.4712
25.5461
20.6714
16.6267
13.1959
10.2164
7.63388
5.18903
3.05618
0.907037
-0.818041
-2.70977
-3.90669
-5.93167
-4.0729
-4.05441
-4.03542
-4.00988
-3.97551
-3.92835
-3.86329
-3.77507
-3.65854
-3.50872
-3.32126
-3.09273
-2.81977
-2.49847
-2.12839
-1.74949
-1.394
-1.04587
-0.73507
-0.476512
-0.24429
-0.0932566
0.0390251
0.156695
0.271534
0.348767
0.438631
0.541281
0.621311
0.705795
0.80228
0.915589
1.04913
1.19458
1.35426
1.52186
1.65038
1.73713
1.78025
1.70288
1.63356
1.41892
0.83788
2.70891
-0.731358
-7.02863
-24.913
-63.1568
-75.2898
-79.4036
-88.575
-115.239
-149.108
-170.247
-177.196
-182.206
-179.915
-173.048
-162.864
-151.483
-139.827
-127.502
-115.573
-103.823
-92.1756
-80.5509
-69.4526
-57.0171
-45.3841
-33.2119
-25.8098
-10.477
-3.0204
10.8771
18.1175
30
37.693
48.7385
56.2137
64.5577
70.1185
78.3173
81.6794
86.9951
88.8878
91.1241
91.8955
90.7987
89.7367
87.006
83.7729
79.8436
74.8566
69.6714
64.3759
59.5745
54.536
49.9278
45.8076
42.2745
38.8391
36.1905
34.2074
33.2199
33.3961
34.3248
38.0741
45.439
55.4193
68.6699
83.62
78.8928
68.5313
51.4029
59.1781
63.0459
63.2905
62.6049
58.5384
49.7711
46.9737
39.2838
23.6195
16.6277
5.95016
-12.1719
-22.5318
-31.99
-44.2728
-52.86
-55.9241
-58.6985
-62.1003
-57.1805
-52.5231
-50.8668
-40.9344
-31.2337
-20.5103
-10.7114
0.50048
11.6742
24.9232
34.7879
50.5318
61.7944
76.3301
89.908
102.193
116.533
135.078
154.343
175.29
200.234
221.103
227.104
215.054
188.886
157.718
128.807
105.236
86.9179
72.6096
61.0972
51.5235
43.4048
36.4649
30.5379
25.4383
21.0616
17.2105
13.8245
10.7582
7.9935
5.35201
2.97656
0.629512
-1.33946
-2.38079
-4.97668
-4.56515
-4.5317
-4.50722
-4.47766
-4.44129
-4.39375
-4.32907
-4.24107
-4.12427
-3.97434
-3.78834
-3.56444
-3.29955
-2.98952
-2.65938
-2.36779
-2.08424
-1.81839
-1.58553
-1.40673
-1.32339
-1.32424
-1.25325
-1.19052
-1.13423
-1.10337
-1.06135
-1.00977
-0.95694
-0.883522
-0.777564
-0.630268
-0.443512
-0.219588
0.036412
0.327733
0.615527
0.876638
1.09511
1.20846
1.28992
1.21509
0.814081
2.32408
-1.90682
-7.82891
-29.0344
-65.5784
-77.9212
-85.35
-97.5373
-121.762
-146.028
-156.885
-162.283
-155.841
-146.016
-133.153
-118.695
-104.728
-91.8385
-79.2722
-67.8991
-56.9917
-46.7816
-37.0959
-28.6961
-15.55
-6.69109
-1.48563
7.72597
17.9104
24.0262
33.1011
38.5356
45.6842
51.035
57.4247
61.3748
65.2992
68.0278
71.2998
71.7713
73.3315
72.9977
72.779
71.7579
70.1525
68.4308
66.1042
63.6472
60.9762
57.836
54.8468
51.9357
49.1935
46.9115
45.0231
43.6163
42.5692
41.045
40.427
40.3827
41.327
43.5711
44.9308
48.492
54.4737
62.2212
70.1314
79.229
75.3556
69.6979
65.8237
70.006
71.4388
71.5151
71.7722
69.3822
64.4491
61.6888
57.3281
48.2065
43.2844
36.9723
23.0338
17.2244
9.25893
-3.76846
-11.3132
-16.572
-23.0876
-29.3048
-30.0649
-30.7381
-32.3268
-29.4565
-25.687
-19.8259
-14.5384
-7.62215
-0.257557
7.45181
17.4905
25.6151
33.0161
46.6552
56.7755
66.6595
77.5564
92.4508
107.503
124.186
145.091
164.866
176.231
174.121
159.264
138.382
117.55
100.132
86.3004
75.1258
65.6391
57.2162
49.5227
42.5469
36.2921
30.7097
25.8123
21.4211
17.5502
13.9693
10.8386
7.73015
5.1142
2.02944
0.0580229
-0.968178
-3.89356
-5.2868
-5.18647
-5.12915
-5.07947
-5.02859
-4.97203
-4.90073
-4.80745
-4.68668
-4.53509
-4.35153
-4.13616
-3.88765
-3.60526
-3.3265
-3.0911
-2.8873
-2.71478
-2.5814
-2.51725
-2.54547
-2.57566
-2.54344
-2.52147
-2.51548
-2.52584
-2.5253
-2.51951
-2.48716
-2.41725
-2.29603
-2.11241
-1.87109
-1.57308
-1.22443
-0.843874
-0.45294
-0.0745301
0.268624
0.531005
0.736942
0.776156
0.617628
1.43997
-3.55691
-10.6303
-34.8666
-69.5633
-82.4972
-92.6392
-106.906
-127.145
-142.805
-146.267
-140.902
-130.66
-114.832
-97.4862
-82.0345
-67.7379
-55.9542
-44.713
-35.1945
-26.1012
-17.8778
-10.1048
-2.89939
5.25509
11.3803
17.3713
24.7549
29.4873
34.8739
40.4069
44.2093
48.2558
51.6939
55.1177
57.1523
58.9184
60.3109
61.5522
61.6453
62.2594
62.012
61.7454
61.0054
59.7965
58.8088
57.6522
56.4856
55.3107
53.9329
52.7679
51.385
50.362
49.7335
49.549
49.928
50.6863
50.5721
51.1991
52.3249
54.4029
58.5344
60.1111
63.1231
67.4861
74.1757
79.152
82.2104
81.056
81.7645
83.0078
83.3272
82.0412
80.7697
79.6269
77.1048
71.9817
69.8389
66.8409
61.1133
57.6336
52.9762
44.1751
38.4783
33.2993
22.0012
17.462
11.6888
3.05413
-2.60383
-5.71748
-9.6975
-13.072
-14.1059
-14.5065
-12.7906
-11.0363
-8.10836
-3.8997
-0.126063
6.3862
10.9406
19.2578
24.2181
32.1645
42.2368
49.1418
60.9141
72.3057
85.4996
102.598
120.326
134.847
140.598
135.103
122.835
108.399
96.1792
86.2398
77.789
70.2295
63.0388
56.1146
49.0984
42.4344
36.2638
30.754
25.7706
21.3737
17.2841
13.7591
10.2422
7.3881
3.63939
1.5475
0.236264
-2.41156
-6.17578
-5.94711
-5.82338
-5.72669
-5.64615
-5.56394
-5.47274
-5.36412
-5.23307
-5.07776
-4.89915
-4.69972
-4.48244
-4.24791
-4.00678
-3.79766
-3.68232
-3.60102
-3.56839
-3.60618
-3.68861
-3.70801
-3.75482
-3.80932
-3.87298
-3.94058
-3.97494
-4.01556
-4.00513
-3.93661
-3.79797
-3.57988
-3.28398
-2.91307
-2.47539
-1.99362
-1.49334
-1.00465
-0.560007
-0.201881
0.0596657
0.127718
0.0611119
-0.177935
-5.60247
-14.9103
-43.3417
-75.3019
-88.9746
-101.165
-115.349
-129.962
-137.165
-133.371
-120.24
-103.271
-85.2906
-67.2369
-53.2402
-41.2683
-31.9322
-23.3602
-16.2041
-9.33939
-3.02587
2.9858
8.64718
14.1806
19.5584
24.0924
28.3312
33.2368
36.7551
40.4425
43.3533
46.0817
48.6321
50.9241
52.5659
53.8013
54.9685
56.0999
56.6159
57.3743
57.8568
58.1823
58.2088
57.8558
57.6686
57.4829
57.4112
57.4798
57.6248
58.1826
57.6915
57.8172
58.2641
59.2011
60.7583
62.927
64.8027
66.3917
68.4153
71.0373
75.7902
78.7681
82.2713
86.3738
90.2693
94.5234
96.7771
101.696
102.572
101.557
95.1875
91.7144
88.9025
86.3846
83.0284
78.5417
75.0626
71.4659
66.6184
64.2661
60.6905
54.9348
50.1325
46.1461
38.5749
33.2631
29.2348
20.9062
17.5574
13.3581
7.23797
3.79324
1.36023
-1.53788
-2.58842
-3.18915
-3.14483
-1.81562
-0.582006
2.10653
4.93386
9.44779
12.4094
19.5954
23.0626
28.6295
37.8603
45.8844
56.2023
69.3286
84.2168
99.3985
110.556
112.534
107.558
99.2679
91.2531
84.6927
79.303
74.114
68.3852
61.9175
55.1606
48.3426
41.689
35.6247
30.0772
25.24
20.6799
16.756
12.8897
9.80401
5.66532
3.11099
1.33305
-0.541791
-7.01617
-6.58157
-6.34838
-6.17284
-6.03693
-5.90216
-5.77431
-5.63773
-5.48847
-5.32636
-5.15434
-4.975
-4.79352
-4.61753
-4.46037
-4.35007
-4.28492
-4.26522
-4.29289
-4.3647
-4.46323
-4.61154
-4.78804
-4.97141
-5.14534
-5.29252
-5.38359
-5.49371
-5.51367
-5.45356
-5.30261
-5.05324
-4.70459
-4.26364
-3.7435
-3.16889
-2.57014
-1.98534
-1.45725
-1.03407
-0.754793
-0.710545
-0.901719
-2.94998
-7.17862
-21.4319
-55.7866
-81.6994
-97.1934
-109.653
-120.993
-128.199
-126.387
-115.548
-93.4522
-77.1923
-60.0092
-44.9536
-34.598
-26.3727
-19.8453
-13.9265
-8.56626
-3.28434
1.89284
6.92054
11.7687
16.3802
21.0132
25.0445
28.7605
32.7022
35.9138
38.952
41.5943
44.0722
46.4544
48.5789
50.4613
52.3129
54.1778
55.6918
56.6416
57.8814
59.1335
60.425
61.3375
62.0017
62.4565
62.8419
63.6131
64.5643
65.9398
68.582
68.8083
69.838
71.1491
72.8853
75.0881
77.926
81.7315
84.8667
88.3882
92.1621
95.6116
100.543
105.463
110.521
115.423
119.397
124.259
125.929
119.671
116.671
112.778
107.184
101.672
96.188
90.3269
83.9765
78.853
73.8077
68.5733
65.267
61.6151
58.3351
54.6599
51.3581
46.3626
41.9703
38.5537
33.0621
28.6755
25.669
19.5842
17.3085
14.3174
9.75743
7.67831
6.02
4.17871
3.50158
3.12452
3.08746
4.31167
5.74524
7.08753
11.0516
12.7233
17.8431
20.9628
26.5361
35.1896
44.0313
55.5206
69.5801
83.1059
89.6199
91.2097
89.0692
83.5419
80.1468
77.5421
74.966
71.4041
66.5582
60.5846
53.9541
47.1585
40.5896
34.4409
28.9733
23.994
19.7177
15.565
12.2695
8.0053
4.90314
2.5262
0.946511
-7.30165
-6.60486
-6.23086
-5.95186
-5.74369
-5.5467
-5.37575
-5.21018
-5.0468
-4.88351
-4.72404
-4.5769
-4.45097
-4.35254
-4.28665
-4.25968
-4.2831
-4.36404
-4.5059
-4.71111
-4.9773
-5.2876
-5.62079
-5.95642
-6.27801
-6.47796
-6.71506
-6.92845
-6.98651
-6.94495
-6.7903
-6.5155
-6.12104
-5.61725
-5.02323
-4.36751
-3.68743
-3.02902
-2.445
-1.99483
-1.74433
-1.80981
-2.45349
-5.65992
-11.3203
-30.9282
-68.2599
-91.3372
-106.033
-115.867
-121.314
-120.661
-110.499
-92.7
-78.4227
-54.4894
-43.0952
-33.0392
-26.8361
-21.8716
-17.2796
-12.8446
-8.34584
-3.54258
1.36406
6.23483
11.0225
15.5941
20.1781
24.5015
28.409
32.1697
35.7562
39.0484
42.2171
45.0383
47.7492
50.2242
52.6731
55.1553
57.7152
60.1352
61.3457
63.0174
64.8664
66.928
69.2987
71.2248
71.9644
73.3067
74.5039
76.0026
77.884
81.1668
82.8736
85.1216
87.6767
90.569
93.7891
97.3512
101.306
106.196
111.536
117.215
123.16
129.041
135.072
139.679
144.641
149.145
152.095
144.819
144.673
140.383
133.415
125.084
116.302
107.323
98.2384
89.4831
81.8067
74.5437
68.139
63.362
58.9136
55.703
52.2768
50.5529
47.5074
44.2481
41.6194
38.1584
34.6201
32.0057
28.0767
24.7904
22.7103
18.0864
16.4982
14.337
11.0202
9.56888
8.36544
6.78802
6.64767
6.20512
6.28263
7.60914
8.21054
10.5899
11.9132
16.8762
20.5233
25.2964
34.2268
46.0046
58.5002
68.7571
73.0534
74.8143
75.0844
73.1577
72.1715
72.0994
71.0429
68.3544
63.913
58.0959
51.4869
44.7646
38.2798
32.4643
27.1724
22.6446
18.357
14.889
10.7079
7.0124
3.85416
2.2563
-6.19927
-5.3272
-4.86932
-4.53103
-4.28838
-4.07766
-3.90572
-3.75015
-3.6075
-3.48545
-3.39587
-3.34886
-3.34768
-3.39484
-3.49309
-3.64661
-3.8596
-4.13478
-4.47179
-4.86693
-5.3137
-5.79812
-6.30211
-6.80235
-7.27363
-7.59975
-8.00239
-8.2497
-8.37716
-8.37041
-8.22001
-7.9237
-7.48718
-6.9298
-6.2763
-5.56052
-4.82804
-4.1326
-3.53793
-3.11932
-2.97775
-3.32724
-4.97877
-8.29028
-18.6748
-44.5379
-80.9078
-102.108
-113.13
-116.93
-115.236
-105.585
-89.474
-70.8979
-54.115
-42.8945
-35.9336
-30.7909
-27.0543
-23.5696
-19.7759
-15.8133
-11.4087
-6.31104
-0.910393
4.55979
10.0446
15.3774
20.4607
25.3672
29.8703
34.1468
38.3222
42.1685
45.9435
49.4613
52.7773
55.923
58.9281
62.047
65.5537
69.5318
71.1227
73.0509
75.2058
78.2422
80.864
83.1517
85.7075
87.8539
90.0156
92.3533
94.7091
96.6251
100.069
103.544
107.362
111.544
116.184
121.36
126.894
132.68
139.017
145.655
151.907
157.6
164.271
168.128
173.922
178.903
172.08
173.923
171.099
164.768
155.376
144.041
131.713
119.032
106.506
94.785
84.2106
74.5988
66.5473
59.8902
54.29
50.1623
46.3904
44.498
42.0845
40.9085
39.4901
37.4634
35.2727
33.3818
31.0135
28.3836
26.6098
23.5793
21.2131
19.5029
16.0442
14.956
13.2901
10.7983
9.90456
8.57631
7.80078
7.50055
7.43312
7.80386
8.12334
10.5551
11.8768
17.3622
20.7392
27.353
38.6415
49.3841
56.9816
60.1586
61.9176
64.0963
65.8878
65.9858
66.5308
66.1178
63.8482
59.5661
53.8721
47.554
41.1318
35.2006
29.7915
25.1396
20.8182
17.2619
13.3576
9.49056
5.70437
3.90217
-2.67742
-2.07039
-1.79637
-1.5941
-1.4452
-1.35409
-1.26087
-1.1975
-1.17013
-1.19212
-1.26828
-1.40239
-1.5999
-1.8651
-2.20066
-2.6068
-3.08156
-3.62156
-4.22014
-4.86883
-5.55547
-6.26337
-6.97247
-7.65624
-8.16102
-8.78798
-9.22903
-9.54542
-9.71576
-9.72409
-9.56129
-9.23202
-8.74297
-8.14145
-7.44976
-6.70429
-5.96206
-5.28829
-4.75752
-4.47177
-4.6019
-5.62568
-7.6638
-14.0029
-29.2787
-60.559
-93.5035
-110.957
-114.571
-110.314
-100.078
-85.0916
-67.1078
-57.1343
-44.6874
-39.9905
-36.3716
-33.559
-31.413
-29.4727
-25.5183
-20.766
-14.9584
-8.88419
-2.39869
4.08986
10.5715
16.8305
22.8318
28.5974
34.048
39.2562
44.2739
48.8813
53.4636
57.8697
62.1621
66.5866
70.0925
73.7986
77.8021
82.5462
85.4358
88.1387
91.9938
95.1178
96.8754
99.7882
103.156
106.397
109.659
113.044
116.542
120.221
124.045
127.927
132.014
136.379
141.146
146.247
151.435
157.039
163.333
170.321
176.89
182.567
190.767
197.086
202.994
198.043
202.536
201.93
197.506
188.999
176.806
162.025
145.833
129.282
113.217
98.3302
84.9811
73.2483
63.4253
55.2873
48.7296
43.6076
39.4661
36.5567
34.214
32.8439
32.2996
32.0791
31.3193
30.4409
29.3233
27.7684
26.5828
24.707
22.8918
21.4676
19.0182
17.7196
15.4517
14.1826
12.925
10.8892
9.87128
8.84535
8.31804
7.72672
7.42128
8.15471
9.00502
10.4857
14.2843
20.4979
24.2387
31.3607
43.0872
48.206
51.3961
52.8831
54.5427
58.102
60.4703
61.0376
59.7208
57.1741
53.0525
47.8673
42.0843
36.4674
31.2726
26.7523
22.6493
19.1753
15.6835
11.9386
8.15178
5.57926
4.30536
3.64608
3.18322
2.88224
2.67234
2.52039
2.35569
2.19049
1.98618
1.7304
1.40983
1.01371
0.535454
-0.0274835
-0.675307
-1.40427
-2.20828
-3.07753
-3.99815
-4.9529
-5.92074
-6.89203
-7.76319
-8.56457
-9.42216
-10.0771
-10.5906
-10.9388
-11.1048
-11.0772
-10.8378
-10.4481
-9.92258
-9.26939
-8.53718
-7.78396
-7.0756
-6.49065
-6.12489
-6.14448
-6.9029
-8.39235
-12.7645
-22.9561
-43.907
-77.2245
-105.298
-113.661
-107.617
-95.271
-80.5396
-65.466
-57.5396
-47.9837
-44.4209
-42.0291
-40.9746
-41.134
-39.0829
-35.2879
-30.3267
-24.244
-17.3618
-10.0064
-2.20372
5.57141
13.3488
20.8963
28.1377
35.006
41.6324
48.0598
54.4393
59.9248
65.4118
70.78
76.1964
82.1323
86.776
91.4879
95.886
99.8569
104.34
109.174
112.003
117.287
121.073
125.128
128.76
132.188
135.44
138.601
141.692
144.8
147.894
151.063
154.349
157.826
161.815
166.241
171.056
176.414
182.334
189.531
198.068
207.481
215.104
222.434
220.581
228.347
230.228
228.511
222.628
211.508
195.69
176.644
155.969
135.193
115.492
97.571
81.8927
68.5406
57.4915
48.6397
41.5762
36.0929
32.0147
28.6762
26.4471
24.6433
23.3826
24.3826
24.5149
24.5594
24.4147
23.874
23.3652
22.4394
21.4403
20.4419
19.0049
17.9668
16.2738
15.2155
13.5495
12.5038
11.6803
10.1021
9.4412
8.65233
8.01621
8.1034
8.63665
8.62843
10.2646
15.4606
19.8853
22.4878
28.2384
37.8526
41.9151
44.5967
46.5085
47.7461
49.8138
52.216
53.2519
51.853
49.0519
44.723
40.0232
35.2717
30.802
26.7567
23.1797
20.1098
17.294
14.1495
10.912
7.20652
15.323
11.877
9.95425
8.7292
7.87106
7.20762
6.66471
6.12657
5.57683
4.9793
4.30984
3.55364
2.70272
1.75424
0.711391
-0.416628
-1.61592
-2.86845
-4.15426
-5.44865
-6.75381
-7.83068
-9.12261
-10.1644
-11.0651
-11.7885
-12.3097
-12.6142
-12.6971
-12.5667
-12.2578
-11.7525
-11.1016
-10.3544
-9.57379
-8.83385
-8.21787
-7.82203
-7.7829
-8.41986
-9.69877
-13.1971
-20.793
-36.0752
-62.2413
-92.2537
-109.496
-106.229
-92.0509
-75.0741
-63.8031
-57.5105
-50.8616
-48.1348
-47.5251
-48.8959
-49.3526
-47.6786
-44.527
-39.7309
-33.6277
-26.1996
-18.0063
-9.15908
0.0733673
9.42173
18.7883
27.8449
36.6175
44.7613
52.6292
60.3757
68.2835
75.1164
81.9428
88.5512
94.9638
101.017
107.47
113.834
119.297
125.44
131.189
135.167
140.226
144.697
148.409
151.686
154.57
157.108
159.341
161.365
163.27
165.237
167.358
169.571
171.984
174.477
177.699
181.512
186.615
192.462
199.309
205.808
215.146
225
228.941
236.811
248.904
254.92
255.888
252.763
244.87
230.208
209.485
184.978
158.986
133.631
110.403
89.9236
72.6404
58.5539
47.3003
38.6706
32.0289
27.0507
23.5832
20.7095
18.8641
17.7094
15.9661
16.3605
17.3322
17.9907
18.4195
18.5447
18.5415
18.2937
17.9318
17.3985
16.7361
16.0992
15.0827
14.3311
13.203
12.4906
11.3404
10.8374
10.2161
9.34614
8.79552
8.76632
9.20593
8.88843
9.31725
13.0691
17.1863
18.6632
21.677
27.8527
34.2703
37.5795
39.7643
41.1646
42.2036
42.7268
43.3122
42.9659
40.8892
38.4988
35.1093
31.4487
27.5694
24.3882
21.7303
19.4741
17.604
15.4599
13.0829
9.93744
29.5707
22.1352
18.2242
15.6707
13.8634
12.4827
11.3884
10.2833
9.25331
8.18437
7.04144
5.80402
4.46473
3.02555
1.49546
-0.113702
-1.7844
-3.50373
-5.23664
-6.79173
-8.55605
-10.0757
-11.4463
-12.6242
-13.5722
-14.2622
-14.6781
-14.8199
-14.7028
-14.353
-13.8072
-13.1083
-12.3067
-11.4585
-10.6278
-9.92176
-9.48768
-9.43668
-9.88693
-11.2918
-14.5131
-21.0257
-33.028
-53.4821
-77.6795
-97.8801
-101.852
-90.4168
-74.0108
-66.1298
-57.0507
-52.5866
-51.299
-51.5898
-54.6024
-55.4436
-54.8654
-52.3979
-48.2805
-42.3823
-35.1586
-26.5793
-17.0333
-6.71901
4.10746
15.1081
26.2335
36.6291
46.7855
56.3396
65.3711
74.1523
82.6149
91.1119
99.4338
107.566
115.403
122.949
130.659
138.195
144.744
148.747
155.126
160.103
164.311
168.018
171.122
173.53
175.594
177.292
178.646
179.734
180.624
181.601
182.908
184.346
186.283
188.993
191.747
194.689
199.265
204.606
211.165
218.653
224.491
234.743
250.649
262.848
271.576
278.022
278.44
272.762
261.571
241.733
214.316
183.097
151.281
121.651
95.816
73.9908
56.4423
43.0497
32.8771
25.5372
20.3396
16.6912
14.4009
12.6647
11.6017
11.3174
10.1692
10.2835
11.5933
12.5188
13.2043
13.6203
13.8807
13.9663
13.9261
13.7553
13.477
13.1424
12.6472
12.2083
11.5889
11.1284
10.5174
10.0588
9.77053
9.3696
9.27471
9.21515
9.70476
9.46549
9.97348
13.1766
14.5154
16.2796
18.8
23.6462
28.0298
31.7659
34.4619
36.071
36.9116
37.0936
35.9769
34.02
31.9595
29.2433
25.9534
23.3133
21.4813
19.5973
18.1114
16.632
15.7443
14.9859
13.9856
11.8241
44.1548
32.5839
26.6381
22.6836
19.8753
17.715
15.9387
14.2327
12.6038
10.9355
9.18713
7.33892
5.3829
3.32082
1.16234
-1.06988
-3.2711
-5.62019
-7.85299
-9.99313
-11.9788
-13.7533
-15.2637
-16.4654
-17.3258
-17.8283
-17.9754
-17.7915
-17.3214
-16.6235
-15.7617
-14.792
-13.7684
-12.7602
-11.8832
-11.2547
-11.0235
-11.4316
-12.8514
-16.1719
-22.2631
-32.4697
-47.9972
-66.449
-82.5653
-91.0644
-86.235
-73.147
-66.0848
-55.6159
-53.3136
-53.245
-54.9669
-57.9633
-59.3569
-59.6405
-58.3196
-55.1363
-50.2793
-43.7304
-35.7382
-26.296
-15.6886
-4.12352
8.13712
20.2622
32.6056
43.4672
54.1072
64.391
74.5034
84.3621
94.0436
103.509
112.653
121.406
129.771
137.779
146.311
153.709
158.289
165.022
170.739
175.725
180.073
183.881
187.3
189.374
191.259
192.707
193.719
194.399
194.891
195.118
195.407
195.855
196.938
198.768
201.217
204.196
206.251
211.127
217.638
227.094
239.96
252.861
267.642
280.934
289.602
296.299
295.647
285.111
268.453
241.026
204.635
166.129
129.312
97.3552
71.3741
50.6143
35.0508
24.4036
16.6859
11.6244
8.64737
6.74807
5.82779
5.38513
5.36075
5.72886
5.66706
6.01516
7.16054
8.47002
9.25832
9.86432
10.2467
10.4781
10.5506
10.4947
10.3691
10.1855
9.93474
9.6816
9.36742
9.12466
8.85979
8.66999
8.62467
8.64158
8.74889
9.10378
9.68137
9.95646
10.7643
12.439
13.9978
15.6589
17.7428
20.6998
24.011
27.3612
30.1753
32.0816
33.2238
33.5526
32.5115
29.6258
25.0049
20.544
17.2401
14.236
11.7976
10.7161
10.6054
10.8699
11.5081
12.3676
12.7998
12.2927
47.5096
37.1601
31.7123
27.7869
24.7537
22.2014
19.8838
17.6304
15.346
12.9756
10.4853
7.84292
5.09328
2.2168
-0.74543
-3.75589
-6.75831
-9.68691
-12.471
-15.035
-17.3043
-19.2106
-20.6981
-21.7286
-22.2863
-22.3807
-22.0492
-21.3547
-20.3763
-19.1988
-17.9063
-16.5847
-15.3253
-14.239
-13.4738
-13.2095
-13.6945
-15.3178
-18.7337
-24.184
-32.3817
-43.4859
-56.3753
-68.4822
-76.592
-78.4641
-72.4316
-64.0228
-54.4826
-52.6441
-53.4524
-55.6664
-58.2197
-60.3424
-61.3787
-61.3118
-59.6846
-56.4501
-51.6002
-45.0605
-36.931
-27.2502
-16.3525
-4.44407
8.33567
19.8527
31.2503
42.2849
53.0555
63.5863
73.8816
83.8987
93.6663
103.168
112.356
121.158
129.701
138.305
147.327
153.331
161.166
168.416
175.018
180.985
186.307
190.822
194.176
197.041
199.688
201.566
202.716
203.265
203.423
203.166
201.993
201.617
202.042
203.384
205.716
209.414
215.423
222.009
229.801
239.586
251.786
264.567
280.737
296.826
303.888
307.92
304.235
284.749
259.143
221.067
173.384
129.409
91.5357
61.9597
40.0784
23.8728
13.1593
7.3046
2.86723
0.263617
-0.117647
-0.654509
-0.545089
-0.0570869
0.690613
1.54516
2.07988
3.05094
3.79501
4.62773
6.1465
6.89756
7.47602
7.77702
7.90733
7.91106
7.8296
7.68921
7.51008
7.32154
7.13271
7.00554
6.92113
6.92282
7.06732
7.33381
7.7051
8.30193
9.0722
9.84433
10.8191
12.0763
13.5598
15.2006
16.9856
19.0485
21.4755
24.1958
26.7797
28.7776
30.169
31.0696
30.9827
28.6947
23.533
16.562
10.1286
6.0893
3.79236
2.08953
1.40218
1.57395
2.83416
6.19169
8.80743
10.6292
46.9404
41.4313
37.4392
33.6987
30.2744
27.0627
23.9346
20.9138
17.6926
14.428
10.8917
7.21832
3.41761
-0.468303
-4.37623
-8.23088
-11.9498
-15.4484
-18.634
-21.4151
-23.7085
-25.4482
-26.592
-27.1274
-27.0752
-26.4921
-25.4671
-24.112
-22.5495
-20.9031
-19.2864
-17.8149
-16.5721
-15.8872
-15.7009
-16.2592
-17.9913
-20.8166
-24.9603
-30.7697
-38.0806
-46.4033
-54.812
-62.0154
-66.8864
-68.9999
-63.0598
-55.7301
-52.7838
-51.8533
-53.0125
-55.3169
-57.3862
-59.2596
-60.5177
-60.7459
-59.7216
-57.3034
-53.3073
-47.5081
-40.0173
-31.1454
-21.7221
-11.8315
-1.60477
8.56011
18.66
28.5667
38.3515
48.0268
57.5967
67.0587
76.4494
85.7815
95.0518
104.283
113.101
122.613
131.081
139.745
149.416
158.287
166.605
174.326
181.33
187.493
192.889
198.413
201.828
204.032
205.31
205.819
205.862
205.652
205.53
205.385
205.942
207.661
210.764
215.263
221.288
228.989
238.126
248.656
263.368
277.775
293.535
310.856
313.189
309.242
297.331
263.803
221.758
171.786
114.858
73.915
44.2319
22.268
11.6069
2.20992
-2.51705
-3.32994
-5.18126
-5.8024
-5.5935
-5.00989
-4.23979
-3.36058
-2.41757
-1.49815
-0.532381
0.217654
0.928711
2.25537
2.82493
3.72309
4.90761
5.26057
5.50614
5.61409
5.60088
5.50865
5.36905
5.21102
5.06811
4.99427
4.99542
5.08819
5.32188
5.71372
6.25441
6.99803
7.93976
9.00459
10.1628
11.4456
12.9148
14.5146
16.151
17.843
19.7332
21.9045
24.1388
26.0513
27.5339
28.8056
29.7041
29.1046
25.3475
17.7464
8.36229
1.98287
0.0619084
-3.83012
-8.75424
-8.41002
-5.49584
-1.49454
0.47215
4.16602
41.8472
42.436
40.7594
38.0441
34.8075
31.2622
27.5672
23.6117
19.5349
15.0187
10.3301
5.47389
0.570865
-4.27
-8.92072
-13.2503
-17.1366
-20.667
-23.7164
-26.181
-27.9898
-29.1018
-29.5177
-29.28
-28.4732
-27.2177
-25.6552
-23.9055
-22.1067
-20.4589
-18.9887
-17.772
-17.1469
-16.5919
-16.7152
-17.4987
-19.0208
-21.6314
-25.3453
-30.1865
-36.0002
-42.383
-48.6585
-53.9389
-57.1734
-57.049
-53.8208
-51.2785
-48.5384
-48.2375
-50.3066
-51.7463
-53.4629
-55.1045
-56.0736
-56.0241
-55.4925
-55.0222
-53.4976
-50.5256
-46.3501
-41.2423
-35.4698
-28.9581
-21.8719
-14.3957
-6.59358
1.42582
9.62495
18.0063
26.6008
35.4665
44.7089
54.4786
64.9663
76.5447
88.4747
100.062
110.85
120.332
133.641
144.277
154.195
163.421
171.775
179.089
185.319
189.989
193.874
196.915
199.138
200.622
201.452
202.006
202.319
202.671
203.651
206.223
210.422
216.415
224.844
234.986
247.799
259.784
277.318
294.463
306.723
319.613
311.114
287.787
258.286
207.161
134.717
76.82
44.1257
22.0763
11.1794
-1.00139
-3.8074
-5.90996
-8.59752
-8.80066
-8.59123
-8.18437
-7.62824
-6.97558
-6.25307
-5.46895
-4.64792
-3.83262
-2.98306
-2.22128
-1.46134
-0.718161
-0.117601
0.86836
1.3605
1.84683
2.69518
3.01479
3.16336
3.18327
3.14189
3.08214
3.01191
3.00031
3.07477
3.21085
3.40098
3.78237
4.38174
5.20488
6.25197
7.46898
8.7936
10.2123
11.7441
13.3556
14.9702
16.5608
18.2149
20.0418
21.9694
23.7475
25.2864
26.7555
28.2217
28.9546
27.3836
22.0424
13.0905
3.38425
-2.09888
-4.7292
-12.2524
-15.962
-14.728
-11.6326
-7.4951
-3.66255
38.4925
39.5914
39.4087
38.2345
36.0689
33.0453
29.2649
24.8768
20.059
14.7064
10.0934
5.01217
0.0800068
-4.64072
-9.07981
-13.1606
-16.8098
-19.7938
-22.1294
-23.8553
-25.0592
-25.7608
-25.9927
-25.8148
-25.3271
-24.5669
-24.0381
-23.0766
-22.1616
-21.357
-20.5909
-19.8911
-19.2971
-18.8674
-18.6829
-18.8122
-19.3369
-20.3666
-21.9575
-24.1359
-26.8545
-29.9457
-33.1156
-35.9158
-37.5796
-37.7606
-37.4578
-35.3745
-32.7142
-33.1946
-34.7519
-37.2937
-40.2875
-43.0283
-45.3324
-46.9344
-48.2862
-51.469
-52.4561
-50.4401
-48.2553
-45.5544
-42.3288
-38.4748
-33.9918
-28.9546
-23.43
-17.5026
-11.2348
-4.64098
2.30305
9.65794
17.5427
26.1443
35.6484
46.5418
58.7315
72.2935
79.8939
91.6953
107.512
119.07
130.17
140.554
150.022
158.458
165.769
171.867
176.691
180.443
183.307
185.393
186.947
188.441
190.231
192.722
196.287
201.975
210.125
219.346
233.222
246.467
263.674
277.473
295.404
314.347
313.417
312.589
273.376
213.784
127.489
73.5485
40.6057
17.9682
8.67587
-2.36101
-5.00173
-7.36237
-9.96951
-10.2837
-10.2297
-9.88918
-9.41953
-8.90731
-8.34498
-7.76578
-7.1704
-6.57268
-5.97529
-5.38992
-4.82747
-4.29155
-3.75705
-3.26602
-2.81605
-2.40226
-2.06265
-1.67653
-1.26537
-0.983734
-0.605313
-0.199676
-0.0586373
0.24723
0.436983
0.598219
0.806019
1.11096
1.39827
1.99632
2.69913
3.64126
4.8007
6.12101
7.56236
9.09464
10.7115
12.3854
14.0565
15.6906
17.3385
19.0998
20.9515
22.7007
24.2116
25.724
27.2875
28.4897
28.4195
26.0644
20.3042
11.1611
1.1006
-5.41996
-8.41685
-15.9956
-21.1695
-19.2982
-16.5824
-11.0902
50.8948
46.2378
43.1369
39.9991
36.7013
33.48
29.5275
25.1473
20.5343
15.8738
11.3169
6.97809
2.91823
-0.700345
-4.02583
-7.03964
-9.76565
-12.2087
-14.236
-15.8916
-17.2235
-18.2882
-19.1371
-19.8174
-20.4207
-20.9753
-21.5061
-22.0515
-22.5612
-22.8609
-23.0537
-23.1261
-23.0226
-22.6742
-22.025
-21.0502
-19.7755
-18.3282
-16.6966
-14.9072
-12.9965
-11.0459
-9.20776
-7.37784
-5.48649
-4.06638
-2.67884
1.57474
3.65892
2.93671
0.748285
-3.49426
-8.78245
-13.2589
-18.4452
-23.6645
-30.1811
-30.6706
-32.568
-36.2523
-40.6176
-43.1712
-44.4217
-44.6253
-43.7428
-41.7944
-38.7922
-34.7412
-29.6898
-23.6615
-16.6538
-8.64067
0.411482
10.5249
21.774
32.9208
46.022
58.866
65.3917
78.3386
91.1886
102.723
113.259
122.84
131.414
138.941
145.438
150.958
155.614
159.604
163.161
166.608
170.016
174.286
179.359
185.434
193.598
204.14
218.878
232.215
252.592
269.272
285.496
303.988
312.98
318.82
287.237
177.595
106.828
61.7262
31.9717
12.7285
4.33572
-3.44648
-5.62473
-8.53646
-9.73174
-10.2033
-9.95456
-9.49628
-8.99573
-8.48607
-8.02759
-7.57742
-7.20623
-6.85799
-6.52015
-6.21219
-5.91259
-5.64615
-5.45955
-5.32883
-5.19612
-5.05883
-4.99142
-5.02418
-5.07294
-5.20524
-5.30935
-5.35963
-5.53399
-5.47451
-5.111
-4.70384
-4.29612
-3.82442
-3.40859
-2.54367
-1.50222
-1.17743
-0.497144
0.770403
2.11842
3.48974
5.08277
6.81229
8.61004
10.4416
12.2682
14.0575
15.8136
17.6084
19.4476
21.2699
23.09
24.8991
26.6893
28.269
28.9988
27.3796
23.481
18.2349
10.26
0.205525
-7.71965
-10.6415
-16.4516
-23.4379
-22.3543
-19.0899
57.4785
50.2398
45.5864
41.4642
37.6493
33.9324
30.3605
26.8208
23.1803
19.5531
15.9677
12.4707
9.15705
6.1117
3.38083
0.696544
-1.893
-4.3832
-6.59711
-8.63168
-10.5597
-12.4191
-14.2167
-16.2954
-18.6121
-20.8399
-23.0397
-25.1891
-27.1821
-28.9553
-30.4101
-31.4194
-31.8116
-31.4629
-30.2342
-28.3405
-25.4259
-21.7009
-17.2293
-12.1911
-6.80269
-0.750573
4.74353
10.437
16.8312
25.0708
31.5087
36.3988
40.2102
42.6807
43.0921
41.2221
37.1551
33.2963
23.8862
17.66
7.20729
-2.30724
-8.51442
-14.5719
-16.4036
-19.1009
-21.5465
-24.6942
-26.3557
-26.8172
-26.0436
-23.9969
-20.6952
-16.1691
-10.4739
-3.67259
4.14497
12.9215
22.586
32.5812
45.2965
55.451
61.1988
73.3923
84.0297
93.5207
102.223
110.168
117.371
123.854
129.715
135.093
140.146
145.2
150.385
156.262
162.736
170.722
180.293
189.574
206.428
224.458
244.295
263.634
282.91
302.891
301.769
323.069
278.34
163.692
92.5277
51.6707
24.3389
9.78248
1.27095
-4.48665
-5.97667
-8.13994
-9.16322
-9.03569
-8.33607
-7.73855
-7.18301
-6.81316
-6.57433
-6.34571
-6.1221
-5.90996
-5.86733
-5.83013
-5.70083
-5.55946
-5.39152
-5.21742
-5.21837
-5.3913
-5.55741
-5.49856
-5.68753
-6.04484
-6.52728
-7.1411
-7.79767
-8.45985
-9.00496
-9.53027
-10.1561
-10.7236
-11.1188
-10.6644
-9.81766
-8.70842
-7.39312
-5.858
-4.2211
-2.34871
-1.74753
-0.606999
1.60003
3.67399
5.72977
7.86408
9.96338
12.0142
14.0225
16.0285
18.0388
19.9567
21.8451
23.7682
25.7387
27.6677
29.2344
29.807
27.7163
22.3989
15.2235
8.53337
0.486244
-8.16126
-11.9909
-15.4677
-22.5949
-22.5977
63.8147
57.0887
52.1313
47.6834
43.6872
40.1092
37.0165
33.9298
30.9042
27.9307
24.9921
22.0542
19.0609
15.9242
12.3999
9.54088
7.16749
5.25863
3.10322
0.739328
-1.85085
-4.69576
-7.84091
-11.293
-14.9802
-18.884
-23.0093
-27.1488
-31.237
-35.2125
-38.9972
-42.411
-45.2686
-47.3395
-48.0188
-47.2761
-44.7347
-40.3166
-34.1152
-26.3191
-17.097
-6.40404
5.70255
17.3817
29.296
44.4865
57.2869
67.4305
74.476
78.6348
80.3359
79.7941
76.978
71.4776
65.7319
59.8184
51.6832
38.7612
32.3337
23.3502
10.8189
4.40412
-0.103829
-0.975949
-2.57537
-4.01731
-5.1449
-4.6761
-2.93347
0.056408
4.17075
9.35192
15.4665
22.5588
30.2798
38.3635
49.5089
54.4192
61.8255
72.5518
80.6465
88.3184
95.6076
102.516
109.118
115.474
121.761
128.218
134.882
142.434
150.551
160.455
171.197
184.786
199.062
215.43
232.63
255.49
266.898
291.756
282.28
303.102
256.02
146.663
83.1965
38.8622
17.0292
5.25492
-3.49426
-4.8647
-6.36439
-8.55445
-8.22317
-7.49638
-6.47064
-5.54639
-5.13417
-5.04768
-4.78985
-4.8526
-5.07336
-5.06208
-4.77044
-4.36785
-3.91963
-3.26
-2.7103
-2.049
-1.41834
-1.08219
-0.806896
-0.746563
-0.910458
-1.73884
-2.84722
-4.00698
-5.05779
-6.46812
-7.88553
-9.20493
-10.5519
-11.9898
-13.0351
-13.4797
-14.1155
-15.1257
-15.9022
-16.748
-16.7394
-14.7682
-12.5564
-10.0174
-7.63355
-4.95656
-2.53522
-1.42729
0.453856
3.96435
6.65748
9.15348
11.5655
13.9257
16.2432
18.5253
20.7346
22.8803
25.013
27.1015
28.8352
29.8538
30.0037
28.2009
23.6298
15.4936
7.1989
0.976592
-5.68839
-11.9198
-13.9528
-17.108
73.4299
63.6599
57.7446
53.2041
49.2223
45.9771
42.8847
40.3022
37.7666
35.4567
33.348
31.3628
29.422
27.5885
26.0557
23.9053
21.4648
18.7233
15.5114
11.8158
7.68487
3.23509
-1.36273
-5.86728
-10.2042
-14.1326
-17.5828
-21.0493
-24.6569
-28.6898
-33.164
-38.1183
-43.6133
-49.1614
-54.0306
-56.6863
-56.8269
-54.5348
-50.3311
-44.7145
-37.9787
-29.4521
-17.9355
-1.66624
10.7377
28.797
52.091
69.7014
84.3499
95.4236
103.003
107.07
107.984
105.724
101.38
95.6025
88.6066
78.5012
69.4983
62.1296
51.1763
39.4015
33.9928
25.6358
20.5169
18.5874
18.2999
17.2471
17.2517
18.6552
21.1448
24.6882
29.0541
34.3358
40.4829
47.1102
54.637
58.6013
66.7682
74.2832
81.2258
87.9323
94.5795
101.183
107.91
114.821
122.159
130.263
139.013
149.21
160.375
173.84
188.154
205.093
220.725
240.458
255.014
272.951
264.533
281.778
245.489
140.795
73.9795
31.7809
13.6904
1.16027
-5.06569
-6.12353
-7.9121
-8.16779
-7.63082
-5.38216
-4.8133
-3.91241
-3.67543
-3.77772
-3.92551
-4.0944
-4.36907
-4.71108
-4.70172
-4.2812
-3.55242
-2.73336
-1.74649
-1.03669
-0.34994
0.491078
1.61557
2.00873
2.8846
3.37784
3.75441
3.84552
3.09268
2.9733
2.68028
-0.0592222
-1.96638
-2.84214
-4.71712
-8.37134
-10.6343
-12.3093
-14.2325
-16.4033
-18.5316
-19.3583
-19.9031
-21.2767
-21.8812
-21.3845
-18.392
-14.4555
-10.3919
-6.70708
-2.73745
-1.31235
0.990369
5.09818
8.28821
11.1761
13.9618
16.6643
19.2484
21.7163
24.0931
26.3162
28.2015
29.5829
30.0971
29.0978
26.5429
22.6868
16.8489
8.38435
0.72689
-4.42591
-8.71236
-12.91
86.8588
78.1948
72.4058
65.0893
53.9409
43.5539
35.3959
30.4264
27.7806
28.3772
31.696
36.2707
40.7795
44.7918
47.5463
48.3151
46.8834
43.2028
37.6051
30.6983
22.8558
14.4941
5.81222
-1.47233
-8.05073
-14.1084
-16.8617
-17.4659
-16.6494
-16.2521
-16.7175
-19.1878
-24.7486
-32.3642
-41.0236
-48.8341
-53.5921
-54.273
-51.6475
-48.0562
-44.7844
-41.8199
-37.2718
-28.7887
-13.8754
0.0944514
21.7647
46.5359
65.9255
82.669
97.0445
107.35
114.092
117.19
117.12
114.634
110.341
103.355
95.5913
88.0536
79.156
68.5167
62.3319
54.7701
46.6721
43.6219
39.065
34.4507
34.8752
35.3605
36.4879
38.6578
41.5834
45.2713
51.1771
54.4567
60.4227
65.5444
71.7652
78.0402
84.3416
90.6708
97.2647
104.111
111.46
119.35
128.014
137.827
148.75
160.979
174.78
189.546
205.503
221.503
237.883
250.062
260.527
243.317
243.939
149.224
82.7981
37.8815
12.5151
1.78133
-5.46657
-7.1744
-8.72244
-8.21879
-7.294
-4.90218
-4.19604
-3.23502
-2.87762
-3.12877
-3.42621
-3.77855
-4.23678
-4.59906
-4.65696
-4.74141
-4.55485
-4.00366
-3.01667
-1.9816
-0.566216
0.553582
2.33658
4.17206
5.98326
8.25376
10.851
11.7939
13.0864
14.6623
14.7452
14.8988
14.9077
12.7733
10.1882
9.07361
6.75398
1.16005
-0.573777
-3.47392
-7.99213
-13.0387
-16.4847
-19.0127
-20.9427
-22.583
-23.3085
-23.7513
-24.7284
-24.0958
-21.3678
-15.7801
-10.6275
-5.70441
-1.7203
0.0821426
3.66759
8.27775
11.4985
14.6722
17.6389
20.4242
23.0413
25.4088
27.4258
28.9382
29.6212
29.1613
27.5097
24.4801
19.9856
14.6794
8.82111
2.2985
-3.64729
-7.48139
190.068
205.658
179.759
131.618
68.2629
14.4331
-33.0902
-65.1813
-80.2757
-89.3176
-78.505
-59.148
-34.9496
-9.66701
13.6258
32.7458
46.5563
55.1141
58.9901
58.3523
53.5325
45.1369
31.8826
19.7692
8.12326
-11.7515
-20.5791
-24.5758
-21.8927
-17.7391
-11.1332
-4.16772
-2.46213
-7.34545
-17.6598
-30.8541
-42.4641
-49.0379
-49.5117
-46.0674
-42.701
-42.1529
-43.5636
-42.8106
-35.8636
-21.9354
-4.04755
12.5093
36.697
55.2636
74.1137
88.9224
100.793
108.944
113.701
115.814
115.297
111.975
107.044
101.353
94.5636
86.0463
79.1044
72.4041
65.1913
60.1096
55.8165
51.6074
49.1767
48.296
48.6866
49.886
51.7867
54.4772
58.5435
62.0794
66.574
71.404
76.8347
82.4922
88.5978
94.9172
101.797
109.199
117.34
126.387
136.181
147.456
159.944
173.463
188.104
201.837
217.786
229.074
240.575
241.098
223.046
196.354
111.654
55.4687
22.536
4.96058
-3.25986
-6.4927
-9.64528
-9.75349
-8.10978
-5.43518
-4.51407
-3.60349
-2.48517
-2.60924
-2.96773
-3.38924
-3.99511
-4.7917
-4.90007
-4.76016
-4.81349
-4.91077
-4.71214
-3.922
-2.5976
-0.985431
1.55886
3.58618
7.00485
10.2986
13.6998
18.8031
21.0139
26.9337
28.5718
30.5154
33.3183
34.1391
34.9265
34.1534
31.1744
28.7871
24.4896
16.7363
12.4156
9.72841
1.93561
-0.920088
-5.91454
-13.7641
-18.0527
-21.3298
-23.286
-24.2401
-25.3958
-26.2428
-25.5243
-23.9725
-19.8372
-13.4875
-7.80026
-2.29042
0.267212
3.70994
8.92031
12.5354
15.9375
19.0819
21.9244
24.429
26.5426
28.1149
28.909
28.7416
27.5029
25.0728
21.5475
17.1923
12.2481
7.16664
2.51387
-1.83484
834.782
799.964
749.069
609.6
435.642
281.25
146.2
33.1106
-55.3801
-117.737
-152.155
-161.673
-151.19
-126.526
-93.6759
-58.0807
-23.9337
6.29164
31.2884
50.3753
62.9557
68.5278
65.6477
56.5048
40.701
18.3041
-2.88124
-20.2295
-26.0366
-26.4232
-20.0392
-4.57269
4.35596
8.74228
5.48312
-7.79768
-24.0748
-38.0636
-44.8225
-43.7986
-39.5121
-38.0282
-41.7998
-47.53
-48.7504
-40.4181
-27.3857
-9.64316
5.92897
25.6934
46.573
63.3124
78.8364
90.5498
99.1378
105.716
108.826
108.935
107.184
104.054
99.5961
93.4403
87.5141
81.8479
75.6979
70.5687
66.1037
62.2108
59.4149
57.9572
57.4665
58.0095
59.2819
61.3483
64.4581
67.7482
71.6788
76.2212
81.3074
86.7996
93.0111
99.5193
106.842
114.933
123.773
134.008
144.382
156.915
169.557
183.571
197.005
209.407
221.393
224.713
226.223
203.952
163.876
90.9333
42.819
17.611
1.84899
-4.5738
-7.34624
-10.1045
-9.67798
-7.46325
-5.0123
-4.39265
-3.40031
-2.33771
-2.53704
-2.8738
-3.41719
-4.0569
-4.94437
-5.18441
-5.20814
-5.30482
-5.42545
-5.6078
-5.55587
-4.60485
-2.74905
-0.240228
3.57362
7.0978
12.3298
17.6676
22.5456
30.5533
33.5568
41.3734
46.5114
48.1795
52.4515
55.3353
56.9245
57.4008
56.4169
55.2706
51.3777
43.3038
36.741
27.3409
16.6586
10.5376
2.57399
-1.30746
-7.6572
-16.7536
-20.7969
-23.3242
-25.0693
-26.2087
-26.9043
-26.8325
-24.4804
-19.9864
-14.2961
-7.89754
-2.2553
0.74829
4.97815
10.438
14.1428
17.6609
20.771
23.4599
25.6571
27.2529
28.1135
28.0979
27.1028
25.0826
22.138
18.4398
14.2539
9.92477
5.78467
1.9601
1582.74
1516.54
1387.12
1209.99
1002.25
778.235
560.973
362.649
192.53
54.4561
-49.3838
-119.916
-160.449
-175.169
-169.123
-147.981
-117.172
-80.7332
-42.0478
-3.71322
31.479
60.2932
78.9873
85.6811
78.6526
58.5055
30.5793
0.709496
-20.232
-32.7401
-31.6595
-12.8557
-3.45713
13.4806
23.432
15.2592
-0.228413
-20.7655
-36.3825
-41.2508
-37.5597
-33.658
-36.6714
-46.6233
-56.0117
-55.6532
-47.1358
-34.9431
-18.8877
-7.02677
17.1928
32.8649
51.4897
65.6019
77.1667
88.3283
94.8056
98.1593
99.7968
99.6107
97.7365
94.1271
90.0036
85.7674
80.9955
76.5729
72.5336
69.0459
66.3589
64.6967
63.9192
64.0975
65.0311
66.7342
69.3276
72.4219
76.1012
80.5275
85.5141
91.1013
97.5821
104.445
112.306
121.158
130.531
141.952
152.308
165.581
176.945
191.499
201.023
211.285
213.833
207.412
191.345
140.634
76.4435
35.6466
13.6751
1.86837
-5.06842
-7.97964
-10.1729
-9.8128
-7.51509
-5.09256
-4.17335
-3.539
-2.30894
-2.55283
-2.77374
-3.25672
-3.96973
-4.9328
-5.3587
-5.94622
-6.08969
-6.25567
-6.75534
-7.24279
-7.21551
-5.9444
-3.34234
0.494103
5.74692
11.1271
18.1847
25.1944
31.8543
41.2544
45.4488
54.396
61.6531
63.6398
67.5063
73.8149
76.1579
77.7254
78.4701
77.9585
75.0832
72.019
66.8757
56.6212
43.7201
31.1657
17.4392
8.13071
0.492468
-4.00654
-13.6287
-19.691
-23.5089
-25.2802
-26.7478
-27.783
-27.1271
-24.3726
-19.3949
-13.1994
-6.46611
-1.14543
1.95785
7.13863
12.1427
16.1214
19.5268
22.4101
24.725
26.3839
27.2747
27.3363
26.513
24.7877
22.2461
19.0463
15.4388
11.7022
8.07038
4.72596
570.855
697.429
905.537
977.387
989.827
944.795
848.565
710.236
556.763
397.174
241.927
104.756
-9.72013
-98.713
-159.863
-193.774
-203.68
-192.089
-162.407
-117.942
-63.1456
-5.22079
47.7556
88.6061
110.552
109.961
88.1983
50.8608
11.5577
-23.1607
-39.7257
-37.3802
-21.6783
10.694
20.2814
29.8054
32.4876
8.40374
-18.9708
-36.1495
-37.8123
-31.3919
-29.6447
-39.9977
-57.4651
-68.0456
-66.4194
-60.1429
-49.8507
-42.8362
-19.651
-7.03201
16.7029
32.1902
46.5839
61.2274
70.6392
77.3686
83.0447
86.464
87.7295
87.1515
85.678
83.5484
80.7201
77.7506
74.7897
72.1425
70.0843
68.7732
68.1569
68.3368
69.2718
70.916
73.3719
76.473
80.1751
84.7237
89.8553
95.7991
102.731
110.086
118.652
128.25
137.981
150.111
159.662
173.13
182.088
195.42
197.521
202.987
187.999
172.197
104.143
58.3582
27.4668
9.27065
1.22902
-5.69392
-6.96176
-10.208
-10.0316
-7.62275
-5.1472
-3.96696
-3.52764
-2.51853
-2.56595
-2.96344
-3.70289
-4.43147
-4.57224
-5.3089
-6.31885
-7.18457
-7.76869
-8.38404
-9.33031
-10.1509
-10.0169
-8.13075
-4.32707
1.25501
8.17877
15.5611
24.1821
32.3667
40.5812
49.967
55.065
65.3848
71.6019
74.0693
79.9846
86.0122
89.5769
92.7891
95.3048
96.3133
95.856
94.9279
90.8885
84.0287
77.6529
64.3036
46.3254
29.1173
14.1725
3.46993
-1.11626
-8.80175
-19.6754
-23.1813
-25.3604
-27.2935
-28.1357
-27.0824
-23.5595
-18.083
-11.3891
-4.31044
-0.0591545
3.42784
9.65609
14.3776
18.0878
21.1778
23.6374
25.3782
26.3381
26.4577
25.7408
24.2424
22.0253
19.2411
16.1124
12.8933
9.74109
6.85301
-598.912
-366.33
-116.548
133.927
348.471
544.549
706.98
759.928
779.165
767.159
681.471
558.499
410.666
244.615
78.8481
-68.1905
-186.23
-264.964
-301.478
-293.74
-240.543
-160.268
-67.6311
23.2544
97.7091
143.531
154.169
129.317
82.1156
22.4024
-25.4784
-54.4512
-59.3667
-18.0978
-3.4878
28.8695
54.666
46.8167
12.6011
-22.9296
-39.3384
-35.1266
-25.5432
-29.2152
-51.1231
-74.2713
-82.7908
-83.9865
-80.2101
-78.9357
-63.4961
-51.983
-27.4572
-15.6322
0.870251
25.7311
37.3047
47.8574
58.1085
65.2487
68.3238
71.0989
72.9879
73.5943
73.3747
72.6095
71.381
70.253
69.5085
69.0474
69.1264
69.8178
71.2275
73.2478
76.03
79.4751
83.5578
88.5399
94.1026
100.69
108.185
116.065
125.401
135.198
144.923
156.949
165.339
176.781
181.943
189.378
182.124
173.918
139.977
83.1688
42.8226
19.3011
5.65567
-1.27593
-4.72309
-8.7672
-9.76664
-9.68808
-7.56737
-5.16867
-3.82464
-3.44121
-2.75093
-2.72605
-3.14288
-3.98393
-4.92953
-4.89483
-5.46512
-6.52827
-8.10385
-9.60632
-10.8519
-12.1633
-13.725
-14.7337
-14.0788
-11.0337
-5.4325
2.16762
10.8117
19.915
29.4355
38.2976
47.2777
55.4665
61.7125
72.3271
75.3385
79.6353
86.3943
91.4403
95.9989
100.245
104.052
106.957
109.191
110.52
109.508
107.128
101.665
92.4004
82.8843
64.4142
41.6862
22.0436
6.69964
1.13864
-5.9115
-17.5485
-22.0215
-25.2334
-27.4559
-28.0864
-26.3104
-22.1092
-16.0547
-8.78957
-1.81462
0.788158
5.75205
12.4376
16.4723
19.7623
22.3675
24.2164
25.2486
25.4494
24.8384
23.4897
21.5286
19.094
16.3742
13.6064
10.8922
8.43847
-293.553
-278.673
-250.303
-196.617
-119.675
-18.759
82.3366
175.058
276.586
357.688
410.795
436.928
425.916
374.085
291.037
182.822
61.2174
-65.1214
-177.043
-259.193
-307.044
-303.243
-250.726
-157.451
-41.0085
72.4582
161.01
203.956
195.243
135.627
52.5426
-30.9991
-89.1608
-94.1991
-60.67
-3.2843
54.0614
78.7634
57.3468
6.94939
-35.8996
-46.7473
-31.6653
-18.7232
-36.1161
-70.4689
-91.8788
-102.63
-107.154
-113.698
-107.103
-99.2461
-79.9678
-65.6854
-52.0388
-23.7879
-13.0986
3.86974
19.9563
30.1616
39.0259
46.4317
52.0806
55.6282
58.6465
60.6968
61.7347
62.714
63.5721
64.6011
66.0015
67.8001
70.2532
73.1778
76.8148
81.0276
85.9157
91.6479
97.9397
105.325
113.197
121.33
131.536
140.377
150.204
159.955
165.761
171.66
170.789
166.408
147.019
92.8709
56.4502
29.1755
12.957
2.13836
-3.1792
-5.58308
-8.74169
-9.02858
-9.16736
-7.40373
-5.23704
-3.79995
-3.45939
-2.82493
-2.81234
-3.42367
-4.29246
-5.1574
-5.45888
-5.92901
-6.70864
-8.58731
-11.1122
-13.7598
-16.1394
-18.3199
-20.3245
-20.9088
-18.9368
-13.9719
-6.05764
3.53356
13.6403
23.8078
33.5518
42.6298
51.3118
58.0528
65.4772
73.4948
76.0596
80.5004
86.3846
91.0952
95.8206
100.461
105.007
109.434
113.728
117.253
119.66
120.844
119.21
115.343
107.302
95.2073
80.3149
54.6635
29.9851
11.9379
0.780085
-4.00602
-14.753
-20.7829
-24.8209
-27.2253
-27.3516
-24.8125
-19.9088
-13.2103
-5.53721
0.204084
2.72205
8.26209
14.8302
18.1772
20.9515
22.9035
24.0187
24.3038
23.798
22.6056
20.8355
18.6774
16.303
13.9202
11.5975
9.53971
-27.0568
-33.9092
-38.5793
-38.9524
-34.6353
-25.7022
-15.5335
-3.45442
13.5987
33.0956
50.3364
66.1183
76.6479
80.76
77.663
66.3988
47.5474
21.5325
-8.84504
-41.3704
-71.1857
-93.1812
-100.369
-88.295
-61.4491
-20.0417
28.0957
66.7183
87.3369
84.1355
61.0487
22.0483
-22.7289
-50.834
-53.5137
-31.165
6.00156
36.8422
45.3875
24.5186
-9.14153
-31.7531
-34.2181
-14.2889
-12.7043
-47.1252
-83.0785
-103.199
-117.389
-136.964
-144.413
-144.74
-133.136
-119.899
-107.136
-83.6242
-65.2454
-50.8356
-27.0478
-17.8924
-3.1536
10.0854
19.5626
26.5559
34.7082
40.5853
44.5373
48.2896
51.6611
54.8923
58.2729
61.8027
65.9064
70.288
75.3152
80.6806
86.7301
93.415
100.477
108.813
116.354
124.625
135.418
140.618
150.671
154.123
153.663
151.343
140.484
93.5348
61.4127
33.9636
18.1089
6.37577
1.23515
-4.99986
-6.58965
-8.52843
-9.20816
-8.63384
-6.96566
-5.15604
-3.80158
-3.53807
-3.08249
-2.9299
-3.44311
-4.4424
-5.47369
-6.42654
-6.92233
-7.44729
-9.12249
-12.1556
-16.3468
-20.6174
-24.3444
-27.1524
-28.7857
-27.7228
-23.3845
-15.7805
-5.46158
5.75992
16.7362
27.2166
36.7134
45.4192
52.8909
59.1517
66.5524
69.4203
73.292
78.5006
82.1841
86.2986
90.6541
95.2771
100.193
105.45
110.937
116.291
121.295
125.481
128.186
128.671
125.579
119.078
106.752
91.0683
67.4291
37.1724
17.301
2.65846
-2.23907
-11.673
-19.4448
-24.2027
-26.4459
-25.8622
-22.5218
-16.9008
-9.59872
-1.91435
1.33269
5.15054
12.0708
16.4266
19.4163
21.4825
22.6769
23.0396
22.6442
21.5901
20.0146
18.0942
15.9936
13.9307
11.9544
10.2482
-0.843706
-2.33722
-3.56381
-4.68724
-5.29572
-5.25893
-5.11989
-4.65357
-3.26349
-1.0243
1.62267
4.45179
7.01738
8.95102
10.2326
10.3197
9.22766
6.70551
3.0046
-1.32763
-6.47679
-11.686
-15.1915
-16.0762
-14.3523
-9.4411
-1.79658
6.67143
13.3099
16.4516
16.2654
11.7123
2.3562
-6.87176
-12.4345
-12.4561
-6.06246
2.87586
10.8005
10.0357
2.70615
-5.6826
-11.5746
-9.17534
0.149937
-11.3876
-29.51
-47.3187
-59.859
-89.6056
-119.031
-146.098
-161.054
-163.142
-159.373
-143.694
-124.366
-107.831
-85.5883
-66.6057
-53.1985
-31.4206
-23.3855
-12.376
4.44929
13.062
19.6484
27.4271
33.8189
39.8893
45.8516
51.6563
57.9112
64.1835
70.8847
77.7505
85.1585
92.8215
100.499
109.306
114.54
123.384
131.721
130.275
141.231
129.558
120.575
83.5334
57.6607
34.5707
19.5927
8.49732
3.21272
-1.84321
-4.30238
-7.93772
-8.51773
-8.82701
-7.94854
-6.4076
-5.17467
-3.89968
-3.47538
-3.28902
-3.14264
-3.93851
-5.22952
-5.44977
-6.84853
-8.0362
-8.75166
-10.3289
-13.3184
-18.2942
-24.638
-30.8715
-35.5954
-37.9793
-37.6063
-33.3621
-25.7969
-15.3077
-3.14973
9.14704
20.1684
30.3058
39.2536
46.9372
53.2221
59.5361
62.0407
66.1083
69.0774
72.0468
75.054
78.3916
82.1985
86.5995
91.6263
97.3116
103.558
110.162
116.914
123.431
129.205
133.392
135.239
133.77
127.739
116.497
97.9852
74.8734
44.1722
20.9844
5.15055
-1.52523
-8.92501
-19.0976
-23.4036
-25.0274
-23.5787
-19.4288
-13.1074
-5.50126
0.642485
3.11766
8.03458
14.8158
17.7931
19.9665
21.2582
21.7052
21.4035
20.4846
19.0925
17.3894
15.5487
13.7539
12.0741
10.676
0.849214
0.507067
-0.0273133
-0.446022
-0.879639
-1.2577
-1.57436
-1.77095
-1.71289
-1.4373
-0.942673
-0.114101
0.683743
1.2012
1.81015
2.3553
2.20644
1.56214
1.25595
0.521353
-0.488113
-2.8996
-3.69164
-4.05687
-3.86682
-3.03299
-1.42979
0.752575
2.7178
3.96067
4.5122
3.97668
2.10316
-0.251025
-2.55401
-4.05654
-3.4
-1.29343
1.60926
2.60771
2.08088
0.112456
-1.56006
-3.41849
-0.186444
-2.29907
-5.50498
-11.1367
-12.6076
-22.7329
-40.4013
-60.0581
-85.34
-105.516
-129.654
-145.127
-151.546
-148.167
-135.852
-117.995
-103.181
-84.4341
-65.1219
-54.1868
-30.557
-23.6077
-12.9882
2.38967
10.6594
20.1518
29.0734
37.456
46.076
54.2855
62.6377
71.2314
79.4809
87.8279
94.6557
102.103
102.253
113.123
108.742
106.058
82.8773
60.6778
44.6347
28.2328
16.9872
8.9311
2.87873
-0.41861
-3.65128
-5.09788
-7.46274
-8.6354
-8.57642
-7.49877
-6.15909
-4.92074
-4.10748
-3.51813
-3.35782
-3.32796
-4.1885
-5.72753
-5.98802
-7.14038
-8.51716
-10.1381
-12.2686
-15.3652
-20.3747
-27.9249
-36.6652
-44.5116
-48.7499
-48.7623
-44.3521
-35.837
-24.889
-12.0135
1.06512
13.6904
23.8905
33.1897
41.7124
47.455
53.3755
55.568
59.0458
60.7994
62.4839
64.091
66.0157
68.5577
71.8595
76.0209
81.0651
86.9915
93.7242
101.136
109.04
117.15
125.015
132.011
137.486
140.409
139.767
134.184
122.699
102.788
76.6248
49.3961
25.092
8.17682
0.309195
-8.11708
-18.6204
-22.1952
-22.8719
-20.4994
-15.5534
-8.69914
-1.47953
2.08137
5.09778
11.9186
15.9552
18.3782
19.7815
20.3244
20.1288
19.3388
18.1102
16.6137
15.0152
13.467
12.0567
10.9212
0.697029
0.488792
0.26089
0.0206122
-0.256354
-0.541705
-0.632914
-0.797221
-0.760328
-0.709595
-0.589861
-0.266694
0.0147147
0.279402
0.517999
0.688249
0.679908
0.512332
0.284722
-0.0444732
-0.436375
-1.07103
-1.27371
-1.47768
-1.36129
-0.89278
-0.586821
0.44792
1.22457
1.77693
2.13351
1.66342
0.741554
0.301635
-0.483041
-2.32714
-2.05375
-1.18643
0.105111
0.867637
1.18898
0.773852
0.155293
-1.1521
-0.698427
-1.03295
-1.70768
-2.36507
-2.30252
-3.67724
-8.98625
-12.9759
-21.7745
-27.9668
-42.1059
-58.1418
-76.8753
-91.0395
-100.98
-106.776
-107.369
-105.554
-92.7355
-83.7455
-64.9411
-56.7215
-36.5183
-24.7308
-18.227
-1.47726
9.77918
20.4269
30.5472
39.5909
49.3923
59.3626
66.3856
73.7961
75.8745
76.4757
76.3915
63.1698
49.9536
38.9617
28.643
18.1011
11.605
5.50072
2.8705
0.266686
-3.29408
-4.41561
-6.22887
-7.2313
-7.76697
-7.59568
-6.80009
-5.76651
-4.84726
-4.08307
-3.79672
-3.44194
-3.68413
-4.27627
-5.60996
-6.60102
-7.93167
-8.8386
-10.6234
-14.3253
-18.3009
-23.54
-31.2257
-41.7106
-52.1501
-59.9647
-61.0735
-56.514
-46.632
-33.9951
-20.2242
-6.07268
6.93464
19.1262
27.7033
36.4585
44.0421
47.1445
50.3327
53.2767
53.0432
53.0824
54.2487
54.5225
55.4977
57.5601
60.618
64.7156
69.8475
75.9927
83.08
91.0402
99.7002
108.821
118.016
126.841
134.749
140.849
144.176
143.617
138.126
124.775
103.161
76.5428
51.5705
27.8683
9.64686
1.59285
-7.51744
-18.0754
-20.325
-19.9266
-16.6348
-10.9876
-4.05718
1.33762
3.64167
7.94449
14.3793
16.7922
18.2725
18.9176
18.8378
18.1855
17.1256
15.8238
14.4423
13.1153
11.9491
11.0439
0.388541
0.293225
0.188826
0.0781702
-0.0395933
-0.132392
-0.196948
-0.2932
-0.298672
-0.253176
-0.203648
-0.115911
-0.0152375
0.0876699
0.182671
0.218876
0.183208
0.0810138
-0.0690108
-0.252666
-0.466649
-0.682651
-0.792996
-0.798473
-0.656151
-0.381262
-0.00973423
0.463915
0.849743
1.12428
1.2066
0.938473
0.505789
0.0365921
-0.608236
-1.06814
-1.06917
-0.751395
-0.134664
0.214792
0.538815
0.611443
0.38677
-0.458136
-0.70028
-0.814723
-0.891608
-0.822506
-0.627878
-0.805314
-2.61139
-3.1692
-5.51525
-5.82374
-9.21214
-13.3953
-20.0752
-25.9287
-31.305
-39.392
-44.987
-52.6837
-54.1223
-55.7405
-50.5949
-47.482
-37.025
-33.157
-18.4523
-13.3026
-5.66276
7.01454
13.707
21.966
26.7289
30.7804
32.3022
32.947
31.0233
27.745
24.0406
19.1531
13.5927
9.08105
5.9769
2.1417
0.859004
-1.5007
-2.77709
-3.66415
-5.5636
-6.47646
-7.05652
-7.4902
-6.71846
-6.13586
-5.43452
-4.7068
-4.08547
-3.69858
-3.75365
-4.29734
-4.59046
-5.63135
-6.6049
-9.23091
-10.0511
-11.041
-15.3418
-21.3716
-27.9788
-35.9112
-46.5433
-59.1943
-69.0211
-73.8249
-68.9125
-58.5557
-43.1926
-27.5936
-12.2023
1.72148
13.8639
25.43
31.3232
40.3265
43.9498
47.2157
46.8573
46.1416
44.7885
42.9756
42.4489
43.0038
44.0245
46.1521
49.3216
53.6038
58.9663
65.4337
72.8728
81.2556
90.4211
100.155
110.119
119.985
129.384
137.49
143.511
146.547
145.687
138.562
122.909
100.186
74.5556
49.4629
27.8579
10.683
1.71604
-7.44289
-16.2304
-17.5806
-16.1653
-12.0519
-6.03503
0.105787
2.7094
5.78382
11.8187
15.0436
16.7437
17.506
17.548
17.0392
16.1555
15.047
13.8738
12.7451
11.7923
11.0728
0.184064
0.167587
0.143558
0.125834
0.113116
0.107116
0.108415
0.107691
0.094627
0.0851207
0.0854055
0.0950255
0.106519
0.109382
0.0990508
0.0668332
0.011967
-0.0642014
-0.155716
-0.252009
-0.376502
-0.478591
-0.521322
-0.477335
-0.342022
-0.123487
0.150046
0.431994
0.658867
0.792871
0.787902
0.612236
0.324024
-0.0255332
-0.398377
-0.640332
-0.677722
-0.501233
-0.130505
0.16924
0.31202
0.324869
0.258306
-0.181672
-0.534853
-0.644945
-0.60659
-0.437591
-0.340728
-0.411038
-1.20844
-1.41138
-2.16687
-1.94647
-2.75445
-3.82568
-5.58264
-6.89256
-7.6988
-9.8749
-11.5299
-14.0595
-15.6292
-17.0052
-17.1096
-16.7761
-15.8491
-13.6961
-11.6988
-6.40215
-4.73223
-1.02639
1.82257
4.63197
6.28057
7.46877
7.72482
7.59231
6.7097
5.13563
4.08894
2.58521
0.988885
0.239532
-0.898383
-2.60211
-3.14998
-4.23059
-4.99476
-5.84226
-6.20975
-6.83942
-6.48772
-6.35885
-5.34938
-5.06678
-4.66438
-4.20168
-3.76131
-3.68623
-4.92966
-5.13359
-5.1335
-6.60437
-9.89469
-12.3959
-12.8514
-16.3048
-23.2565
-32.3634
-42.3657
-53.0743
-65.7893
-77.8803
-83.2753
-81.7679
-69.3534
-53.5773
-34.0077
-17.5803
-1.97902
10.2703
21.9801
31.8231
36.2625
41.5016
45.7338
44.5269
43.3686
40.9316
38.2524
35.4306
31.5367
31.3048
32.7291
35.2466
38.7748
43.4454
49.2275
56.1676
64.0091
72.825
82.3393
92.4076
102.73
113.096
123.221
132.679
140.571
146.154
148.676
146.149
136.04
118.29
95.1116
69.9963
46.0358
25.754
10.5348
1.92529
-8.44488
-14.2459
-13.9086
-11.6011
-6.97728
-1.17583
2.64163
4.43165
8.39626
13.6912
15.2455
16.0996
16.2676
15.9071
15.2022
14.2802
13.3048
12.3503
11.5863
11.0006
0.0785272
0.093879
0.111863
0.133174
0.157808
0.185297
0.213451
0.238051
0.25548
0.264318
0.260162
0.249818
0.221666
0.17111
0.09622
0.0197153
-0.06141
-0.145364
-0.229707
-0.302379
-0.362983
-0.387356
-0.366701
-0.296738
-0.178446
-0.00513271
0.190065
0.376754
0.515277
0.579698
0.550276
0.423535
0.22559
-0.00710052
-0.228343
-0.371866
-0.395727
-0.294993
-0.0972765
0.0864981
0.169183
0.185745
0.142059
-0.0391713
-0.43205
-0.554539
-0.528454
-0.396192
-0.37368
-0.466489
-0.89325
-0.994429
-1.28963
-1.11846
-1.35834
-1.82453
-2.43538
-2.94435
-3.00512
-3.50529
-3.91331
-4.56256
-5.05063
-5.29151
-5.43199
-5.2625
-5.49103
-4.97593
-4.82185
-3.79241
-3.29161
-2.26294
-1.76976
-1.1391
-0.952422
-0.670555
-0.554726
-0.52633
-0.891122
-0.953474
-1.08838
-1.91824
-2.30809
-2.82326
-3.69205
-4.22133
-4.89167
-5.46696
-5.82204
-6.26863
-6.00145
-6.12688
-5.43858
-5.27982
-4.36235
-4.50362
-4.25405
-4.03569
-4.65428
-4.45091
-6.41166
-5.53304
-6.9199
-10.1716
-13.484
-16.1881
-18.7523
-25.0405
-35.3839
-48.2556
-61.8986
-74.3003
-86.2266
-93.0761
-90.1278
-80.6093
-61.1042
-41.7861
-20.3738
-5.75343
9.36236
18.8415
31.7435
36.2442
41.7609
43.7944
44.2103
41.8954
37.4113
32.2285
27.744
24.3151
22.1186
20.9291
22.237
25.4706
29.5967
34.762
41.2023
48.8475
57.1838
66.4027
76.1212
86.2785
96.7315
107.307
117.801
127.797
136.627
143.72
148.493
149.279
143.753
130.836
111.377
87.8635
63.5139
41.2889
22.8653
9.20242
3.0695
-7.24045
-12.2116
-10.5158
-6.82657
-1.58625
2.48568
3.78064
6.42474
11.4548
13.6855
14.708
14.9947
14.7761
14.2438
13.5006
12.7031
11.8948
11.2823
10.7637
0.0357169
0.0639059
0.0940753
0.125797
0.158155
0.189789
0.218744
0.242764
0.260005
0.268348
0.265005
0.247983
0.213371
0.15826
0.0634289
0.022123
-0.0901687
-0.18699
-0.274623
-0.342507
-0.356616
-0.338279
-0.281047
-0.18989
-0.0723583
0.0605881
0.190348
0.325248
0.41233
0.441165
0.406884
0.314243
0.180621
0.0315351
-0.102178
-0.188249
-0.206321
-0.156615
-0.0579847
0.0363514
0.0947316
0.0992095
0.0443648
-0.0904647
-0.38749
-0.50749
-0.50627
-0.437986
-0.453822
-0.579032
-0.828652
-0.932314
-1.02878
-0.943154
-1.03317
-1.28494
-1.60468
-1.83875
-1.84237
-1.99437
-2.18454
-2.47446
-2.72534
-2.84689
-2.91851
-2.88162
-3.04846
-3.00026
-3.04265
-2.89549
-2.85604
-2.62643
-2.55289
-2.63673
-2.4296
-2.32948
-2.29596
-2.41162
-2.61415
-2.85279
-2.98092
-3.40591
-3.76694
-4.12401
-4.6415
-4.83057
-5.37522
-5.45573
-5.53405
-5.5245
-5.10411
-5.32909
-4.69802
-4.6005
-3.72342
-4.33367
-4.08665
-4.74281
-5.75945
-5.39804
-7.2385
-6.83264
-10.3016
-14.4359
-18.0026
-22.5217
-27.9778
-38.3779
-52.3516
-69.2728
-85.5178
-96.5027
-102.657
-99.363
-86.2767
-68.5579
-44.792
-24.7697
-4.64325
11.0788
21.5852
27.7761
37.7906
41.2646
43.9979
44.1417
40.9548
35.0409
27.9697
20.7069
15.5033
11.653
9.13143
9.85547
12.3914
17.1604
22.3277
27.7647
35.1339
43.898
52.7878
62.0886
71.8323
81.9304
92.2729
102.747
113.205
123.299
132.482
140.34
146.422
149.378
147.194
138.36
122.759
101.939
78.6691
55.836
35.712
19.7559
8.45067
3.4642
-5.45387
-8.01667
-5.84618
-1.67436
2.36719
3.73893
5.49189
9.16891
12.1519
13.2704
13.6961
13.6047
13.225
12.656
12.0052
11.3348
10.7709
10.261
0.0199038
0.0466973
0.0743978
0.102358
0.129522
0.154627
0.176265
0.193004
0.203535
0.206575
0.200699
0.184426
0.156473
0.116381
0.0645247
0.00481653
-0.0591218
-0.123527
-0.180863
-0.221165
-0.230216
-0.216682
-0.16395
-0.0777434
0.0289256
0.13287
0.218538
0.297581
0.339801
0.343438
0.309601
0.244629
0.160203
0.0715863
-0.00491462
-0.0552386
-0.0720823
-0.057718
-0.0219362
0.00865298
0.0386949
0.0215668
-0.0337291
-0.160878
-0.326228
-0.44686
-0.476594
-0.465029
-0.505115
-0.627925
-0.794934
-0.894475
-0.950818
-0.947136
-1.00491
-1.16742
-1.32879
-1.45329
-1.47575
-1.53985
-1.64241
-1.83231
-2.00684
-2.10021
-2.16829
-2.19525
-2.32323
-2.3776
-2.48382
-2.50087
-2.57981
-2.57985
-2.64057
-2.80947
-2.8189
-2.89022
-2.91085
-3.14603
-3.22303
-3.62166
-3.64454
-4.07967
-4.27982
-4.49417
-4.83813
-4.77238
-5.02061
-4.85636
-4.90349
-4.70029
-4.51067
-4.72173
-4.13944
-4.21818
-3.37602
-5.13917
-4.85594
-5.94458
-6.30035
-5.81994
-10.0238
-10.0479
-15.9451
-20.3248
-25.4222
-34.8596
-42.5274
-57.9262
-74.6427
-95.1443
-110.703
-114.411
-109.447
-92.7827
-70.1664
-45.7736
-22.4413
0.343498
13.4627
23.8908
28.9058
35.727
41.8673
45.7843
45.8724
41.6778
34.2085
24.2764
14.9011
6.0461
1.38466
-2.3612
-2.31666
-0.943274
3.37981
10.2506
17.7465
22.1149
30.0959
41.2907
50.321
59.7407
69.4373
79.3363
89.3786
99.5028
109.602
119.393
128.465
136.529
143.2
147.39
147.404
141.661
129.509
111.76
90.4978
68.282
47.5644
30.2529
17.1335
7.97213
4.38466
-2.0102
-3.72617
-0.989256
2.57196
4.28549
5.27578
7.55724
10.6688
11.7948
12.3074
12.306
12.0519
11.6668
11.1485
10.6037
9.81935
9.40704
0.02466
0.0390058
0.053394
0.0673898
0.0803833
0.0917118
0.100691
0.106654
0.108972
0.107066
0.100421
0.0886713
0.0717546
0.0500775
0.0246008
-0.00312192
-0.0308818
-0.0558489
-0.0742387
-0.0814423
-0.0725505
-0.0408707
-0.00989612
0.0501159
0.119748
0.190823
0.241719
0.268879
0.276235
0.264221
0.235433
0.19456
0.147594
0.101474
0.0621157
0.0333418
0.0159502
0.00763261
0.00412123
-0.00576082
-0.00926554
-0.030435
-0.0856372
-0.176778
-0.283209
-0.378917
-0.428866
-0.456351
-0.511265
-0.614653
-0.737563
-0.832903
-0.892738
-0.933881
-1.00021
-1.10878
-1.22467
-1.31344
-1.36442
-1.41631
-1.49946
-1.61575
-1.73724
-1.82173
-1.90055
-1.95469
-2.06497
-2.13919
-2.26323
-2.3288
-2.44016
-2.51832
-2.62197
-2.77781
-2.85524
-3.05112
-3.11471
-3.39639
-3.40796
-3.78596
-3.72231
-4.10437
-4.03866
-4.25513
-4.30335
-4.27673
-4.39995
-4.18715
-4.4399
-3.92271
-4.27761
-3.89502
-3.98451
-4.77851
-4.57137
-6.23657
-5.40731
-6.62773
-7.77279
-8.90363
-15.2166
-15.8435
-25.4086
-29.6358
-41.3223
-54.9697
-64.8616
-85.3576
-101.667
-123.905
-130.925
-119.596
-99.9156
-69.6832
-30.8767
-8.18024
5.72757
19.425
23.1331
30.0692
36.6184
44.098
48.5995
48.6106
43.7388
33.8406
21.8516
7.87593
-2.37241
-12.1909
-14.5665
-17.5252
-15.2223
-10.917
-4.42044
3.98535
13.7569
21.3302
26.5738
37.164
50.2572
59.1444
68.6053
78.1597
87.7406
97.3174
106.807
115.988
124.584
132.401
139.087
143.745
144.969
141.303
131.909
117.102
98.3032
77.6033
57.3484
39.6137
25.5983
15.3875
8.06046
5.58038
1.16614
1.23901
3.48371
4.93042
5.53312
6.92424
9.45732
10.1993
10.7432
10.7349
10.6017
10.4536
10.1158
9.45671
8.54004
8.00065
0.0339167
0.0357387
0.0371906
0.038146
0.0384875
0.0381056
0.0369024
0.034799
0.0317424
0.0277151
0.0227547
0.0169854
0.0106554
0.00416805
-0.00190288
-0.00680708
-0.00961042
-0.00919862
-0.00430934
0.00633732
0.0236719
0.0480581
0.0799617
0.103979
0.144049
0.178223
0.196036
0.19899
0.194997
0.18384
0.167426
0.148074
0.128047
0.108688
0.0905149
0.0726977
0.0543845
0.0341316
0.0113264
-0.0143706
-0.0302606
-0.0613119
-0.116842
-0.179917
-0.249793
-0.32208
-0.380315
-0.428777
-0.489321
-0.572937
-0.668348
-0.75415
-0.821145
-0.880918
-0.946326
-1.03084
-1.12391
-1.20639
-1.27125
-1.33144
-1.40514
-1.489
-1.5807
-1.65927
-1.74249
-1.80952
-1.90593
-1.98114
-2.09597
-2.17379
-2.29425
-2.38377
-2.50283
-2.62467
-2.7226
-2.89177
-2.9378
-3.18091
-3.12872
-3.47485
-3.30299
-3.71224
-3.48902
-3.84595
-3.67869
-3.8796
-3.83663
-3.57992
-4.11227
-3.23219
-4.58542
-4.17819
-5.1963
-5.66861
-5.35604
-6.91058
-6.69492
-10.4054
-12.5925
-15.518
-25.6601
-27.5937
-41.7286
-49.6416
-68.1207
-85.2912
-96.773
-118.249
-127.923
-144.825
-128.708
-97.2671
-45.2699
-19.2745
2.2208
17.7581
20.726
27.9011
36.6338
43.5736
49.2296
52.8933
52.7362
46.3639
34.3348
17.2294
0.965579
-16.0921
-23.5467
-32.5849
-36.4827
-33.1321
-27.8595
-20.5533
-11.6315
-1.46931
9.7313
19.8682
24.7992
34.5802
49.9759
59.2481
68.3637
77.4716
86.4908
95.3924
104.108
112.484
120.363
127.606
133.873
138.391
140.003
137.491
130.063
117.753
101.465
82.8204
63.9189
46.7758
32.6644
21.9307
14.3438
9.02583
6.24957
4.77952
5.03207
5.70835
5.9792
6.65534
8.22083
9.11082
9.17235
8.91571
8.83236
8.98541
8.83195
7.64897
7.19883
6.23632
0.0236976
0.0221654
0.0202938
0.0181081
0.0156772
0.013085
0.0104299
0.00782564
0.00540196
0.00330492
0.00169793
0.000762699
0.000698741
0.00172005
0.00404801
0.00790062
0.0134782
0.0209427
0.0303869
0.0417881
0.054954
0.0694835
0.0851362
0.09503
0.107689
0.119908
0.12145
0.11856
0.114743
0.110005
0.104603
0.09883
0.0925788
0.0851482
0.0753386
0.0618507
0.0432319
0.0201664
-0.00615417
-0.0330267
-0.0546891
-0.0944329
-0.13858
-0.187394
-0.239804
-0.297678
-0.356086
-0.412136
-0.472504
-0.542019
-0.617068
-0.691319
-0.757869
-0.818715
-0.880553
-0.948015
-1.01884
-1.08834
-1.15174
-1.21162
-1.27314
-1.33866
-1.41001
-1.4793
-1.55426
-1.62159
-1.70411
-1.77421
-1.87087
-1.94494
-2.05313
-2.13524
-2.24427
-2.34571
-2.4391
-2.57462
-2.62736
-2.82666
-2.79119
-3.09335
-2.93528
-3.32466
-3.11138
-3.37214
-3.25699
-3.30863
-3.63596
-3.66695
-4.44461
-4.09778
-5.41689
-4.62364
-6.24616
-6.16729
-8.07482
-10.4503
-12.3938
-19.2723
-22.9326
-31.7526
-46.4941
-50.3351
-73.7679
-82.323
-106.739
-125.652
-134.241
-145.406
-143.648
-87.2343
-50.1551
-20.4871
6.63118
14.8339
21.2164
30.6732
39.6137
46.1471
51.3697
56.22
59.5083
58.2363
50.4421
34.9165
13.4917
-8.75597
-28.5596
-37.3197
-51.5225
-53.8455
-50.7364
-44.3404
-38.0861
-29.6061
-19.6907
-8.61845
3.23197
15.0495
21.1106
32.5069
48.9703
58.0765
66.9767
75.6978
84.1588
92.3464
100.221
107.71
114.747
121.231
126.841
130.864
132.283
130.181
123.949
113.516
99.4654
83.0732
66.1324
50.4153
37.117
26.6652
18.8525
13.2738
9.63812
7.37577
6.65129
6.37693
6.32524
6.4315
6.88479
7.77547
8.09292
7.90684
7.46482
7.64428
7.32979
6.11131
5.6457
4.41537
0.00653275
0.00644356
0.00630204
0.00612985
0.00595603
0.0058134
0.00573919
0.00577468
0.00596482
0.00635771
0.00700366
0.00795363
0.00925688
0.0109574
0.0130896
0.0156719
0.0187004
0.0221402
0.025916
0.0299045
0.0339321
0.0377853
0.041231
0.0440071
0.0460132
0.0467366
0.0470264
0.0466936
0.0464062
0.0465538
0.0465829
0.0456874
0.0429573
0.0373307
0.027682
0.0132103
-0.0057811
-0.0293175
-0.0530211
-0.07042
-0.0978089
-0.139079
-0.176324
-0.21587
-0.257165
-0.304281
-0.357516
-0.412495
-0.469415
-0.528781
-0.590134
-0.650567
-0.708063
-0.762635
-0.816015
-0.86991
-0.924115
-0.977615
-1.02885
-1.07843
-1.12788
-1.17896
-1.23307
-1.28916
-1.34985
-1.4104
-1.47935
-1.54469
-1.6253
-1.69476
-1.78772
-1.86464
-1.96201
-2.05675
-2.14183
-2.26823
-2.32509
-2.47109
-2.44878
-2.64615
-2.60429
-2.87069
-2.87145
-3.19234
-3.41889
-3.74194
-4.0543
-4.06981
-5.14204
-4.63808
-7.05644
-6.66919
-10.5434
-11.4985
-17.4662
-21.7268
-29.182
-41.6494
-48.7181
-69.2647
-81.2088
-96.607
-120.089
-119.623
-157.635
-165.496
-151.703
-91.0391
-44.438
-3.3845
9.65149
20.6221
31.8086
40.4543
51.1553
56.6607
59.6091
62.0191
64.6874
66.6053
64.2862
53.6196
33.4915
9.11417
-22.6507
-36.7902
-57.4148
-66.9921
-68.5107
-65.5778
-59.9094
-52.4102
-43.9186
-35.0653
-25.3642
-14.7241
-3.4093
8.21685
16.0216
29.7936
45.3273
54.2237
63.1626
71.6273
79.5589
86.9726
93.858
100.192
105.942
111.022
115.385
119.562
121.21
119.186
113.609
104.524
92.408
78.3157
63.712
50.0219
38.2216
28.6774
21.2595
15.6692
11.6477
9.05881
7.59154
6.7862
6.35058
6.1517
6.17945
6.5121
6.92461
7.08536
6.91447
7.28473
6.52282
4.69281
4.00112
2.35314
-0.00390034
-0.0034008
-0.00282874
-0.00219875
-0.00153435
-0.00086201
-0.000209366
0.000395615
0.000926191
0.0013587
0.00167463
0.00186267
0.00192048
0.00185558
0.00168507
0.00143358
0.00113038
0.000794999
0.000436914
5.13605e-05
-0.000377447
-0.000870647
-0.00145121
-0.00214567
-0.00298959
-0.004041
-0.00486747
-0.00621603
-0.00791649
-0.0103261
-0.0139841
-0.0193182
-0.0266779
-0.0362839
-0.0482503
-0.0625834
-0.079052
-0.0974517
-0.121179
-0.134841
-0.157299
-0.191974
-0.225048
-0.259766
-0.295774
-0.335432
-0.381934
-0.431511
-0.481219
-0.530082
-0.57883
-0.627433
-0.674043
-0.71721
-0.75772
-0.797219
-0.836258
-0.873836
-0.909116
-0.942802
-0.976654
-1.01178
-1.04859
-1.08647
-1.12632
-1.16914
-1.22028
-1.27301
-1.33496
-1.39113
-1.46394
-1.52567
-1.61856
-1.68708
-1.79129
-1.87691
-1.99866
-2.13434
-2.28072
-2.53781
-2.62039
-2.98985
-3.1554
-3.58322
-4.02971
-4.60047
-5.71187
-6.71226
-9.14621
-10.7352
-15.7192
-19.0532
-27.2479
-34.3688
-47.1072
-59.0451
-75.8
-94.5775
-107.014
-129.944
-129.338
-160.452
-144.201
-146.088
-95.7155
-46.6363
-1.40745
11.3834
22.4604
36.821
50.5328
66.538
73.6103
75.5373
75.0379
73.111
71.8403
71.9714
71.3613
66.2124
52.3441
27.372
-7.30876
-31.6671
-51.2463
-76.6908
-78.8588
-77.1667
-73.0574
-67.5798
-61.4658
-54.9633
-48.0638
-40.5908
-32.2978
-23.0276
-12.7955
-1.79935
8.47677
21.7484
35.3335
45.4465
55.1794
64.1088
72.2439
79.6595
86.3893
92.4368
97.7934
102.342
105.566
104.813
104.108
103.344
98.3995
90.4657
80.2171
68.5616
56.6096
45.3904
35.6057
27.5096
20.987
15.9013
12.2195
9.75198
8.16762
7.28263
6.74109
6.35568
6.2726
6.22779
6.42783
6.67279
6.3898
6.59679
5.23666
2.8917
1.96384
-0.147154
-0.0104523
-0.0111782
-0.0118216
-0.0123722
-0.012813
-0.0131286
-0.0133069
-0.0133406
-0.0132308
-0.01299
-0.0126466
-0.0122486
-0.0118676
-0.0116012
-0.011573
-0.0119296
-0.0125203
-0.0138948
-0.0158806
-0.0185309
-0.0217407
-0.0253024
-0.0289356
-0.0323484
-0.0353124
-0.0377458
-0.0397828
-0.0418362
-0.0445152
-0.0485481
-0.0546276
-0.0631777
-0.0741736
-0.0870699
-0.100894
-0.114571
-0.127442
-0.139628
-0.152153
-0.166145
-0.184796
-0.214272
-0.251564
-0.267672
-0.301499
-0.331363
-0.368542
-0.410939
-0.452982
-0.493791
-0.527759
-0.563229
-0.602083
-0.635483
-0.660912
-0.686149
-0.71961
-0.754521
-0.779195
-0.791399
-0.803592
-0.824253
-0.841255
-0.853986
-0.861826
-0.877348
-0.903801
-0.942964
-0.988856
-1.03703
-1.11787
-1.19821
-1.31131
-1.41723
-1.57382
-1.73802
-1.97598
-2.20941
-2.5414
-2.96021
-3.56135
-4.38368
-5.4528
-6.86094
-8.945
-11.6965
-15.4278
-20.5745
-27.2887
-35.6421
-47.3296
-59.6932
-76.0346
-93.5032
-109.359
-129.281
-137.348
-152.297
-142.048
-139.233
-127.473
-85.2403
-37.213
5.2269
17.9996
38.9371
52.9087
69.4407
86.7388
95.7815
97.865
93.8304
86.3524
80.6643
75.6936
72.2629
70.2664
67.719
60.8585
45.4594
19.8917
-12.5497
-33.4114
-63.8684
-76.1134
-79.2969
-77.4202
-72.9747
-67.633
-62.1225
-56.7284
-51.4532
-46.1485
-40.5496
-34.3817
-27.4095
-19.5431
-10.7825
-1.991
8.8723
19.909
30.3808
40.418
49.7487
58.2445
65.8006
72.4285
78.104
82.7896
86.3579
88.5886
90.9479
90.4153
85.7229
80.786
73.8875
65.4161
56.0884
46.6908
37.9279
30.3135
24.0614
19.0195
15.0502
12.2737
10.5304
9.25924
8.49909
8.16451
7.64624
7.37041
6.98582
6.57647
6.29202
5.40114
4.63847
2.50639
0.253814
-0.676246
-3.21127
-0.00943887
-0.0135388
-0.0175223
-0.0212576
-0.0245671
-0.0272803
-0.0292444
-0.0303384
-0.0304896
-0.0296921
-0.0280251
-0.0256675
-0.0229055
-0.0201256
-0.0177853
-0.0163598
-0.0162547
-0.0176891
-0.0205608
-0.0244435
-0.029043
-0.0339397
-0.0386474
-0.0427061
-0.0457924
-0.0478273
-0.0490523
-0.0500445
-0.0516473
-0.0548064
-0.0603229
-0.0685981
-0.0794418
-0.092024
-0.104964
-0.116568
-0.125354
-0.130841
-0.134463
-0.139198
-0.150215
-0.173933
-0.206765
-0.242898
-0.273994
-0.28078
-0.309031
-0.32876
-0.364333
-0.42185
-0.441292
-0.464114
-0.510854
-0.545551
-0.553056
-0.554479
-0.58999
-0.639651
-0.663824
-0.652087
-0.645805
-0.663537
-0.720791
-0.751385
-0.759867
-0.783501
-0.832125
-0.900273
-0.970053
-1.04631
-1.16888
-1.33321
-1.55537
-1.79846
-2.18448
-2.61581
-3.26738
-4.00109
-5.04317
-6.48963
-8.32555
-10.8806
-14.2717
-18.6904
-24.6017
-32.2249
-41.1794
-53.0444
-65.1704
-81.3532
-94.9235
-110.601
-124.932
-132.702
-139.766
-135.582
-122.694
-110.983
-82.5269
-65.8478
-18.747
1.60848
28.2694
55.7461
61.6631
82.0774
98.8054
109.989
114.869
113.172
105.915
94.612
84.9078
77.3358
71.5856
67.6724
64.1177
58.3311
46.844
25.4077
-4.60562
-29.0912
-54.4822
-76.1921
-79.574
-78.8444
-74.7629
-68.4347
-62.2515
-56.6766
-51.5862
-46.9224
-42.4387
-37.792
-32.7534
-27.163
-20.9691
-13.3394
-6.59481
1.89561
10.243
18.9838
27.66
36.0485
43.981
51.2503
57.6472
63.0945
67.4687
70.6422
72.6592
73.6713
72.3227
67.7275
64.1627
58.4609
51.6959
44.5106
37.4528
30.9635
25.3981
20.9581
17.55
14.854
12.8911
11.8544
10.9922
10.164
9.90215
9.11553
8.27148
7.41022
6.26388
4.73534
3.21875
1.69039
-0.886295
-2.17262
-3.84266
-6.0632
-0.00107338
-0.00693655
-0.0128325
-0.0185528
-0.0238316
-0.0284209
-0.0321031
-0.0347086
-0.036137
-0.0363779
-0.0355316
-0.0338221
-0.0315974
-0.0293093
-0.0274682
-0.0265705
-0.0269855
-0.0288447
-0.0319949
-0.0363216
-0.0413787
-0.0463586
-0.0503609
-0.0526432
-0.0528564
-0.0512137
-0.0485453
-0.0461799
-0.0457387
-0.0487491
-0.0562563
-0.0683619
-0.0840502
-0.101737
-0.119459
-0.134441
-0.143333
-0.143188
-0.134835
-0.121026
-0.115579
-0.140571
-0.188341
-0.252951
-0.307844
-0.281697
-0.256428
-0.303219
-0.346165
-0.394345
-0.404025
-0.404624
-0.503117
-0.56381
-0.500348
-0.439268
-0.491505
-0.592466
-0.626504
-0.556138
-0.512502
-0.555057
-0.649515
-0.685567
-0.660071
-0.695549
-0.815385
-0.986574
-1.13713
-1.31509
-1.621
-2.09248
-2.6996
-3.46578
-4.53448
-5.93294
-8.00586
-10.4604
-13.8037
-18.1496
-23.5082
-30.2417
-38.2392
-47.6212
-58.7163
-70.1605
-81.1789
-93.1536
-105.054
-112.868
-118.036
-121.215
-116.02
-106.12
-98.3908
-76.588
-56.4305
-41.2653
-12.33
6.03738
35.1232
59.696
70.2708
91.1802
106.475
119.48
128.436
131.255
126.775
116.18
101.969
87.1437
76.9462
69.1407
63.7038
60.2269
56.8291
48.7567
32.2346
6.78066
-20.8148
-42.2962
-68.253
-75.9021
-77.7576
-75.7725
-71.209
-64.8752
-58.5814
-52.7973
-47.5929
-42.9283
-38.6305
-34.5102
-30.2824
-25.7518
-20.8223
-15.0442
-8.73083
-2.94233
4.92011
11.5793
18.1213
24.4509
30.3164
35.9293
41.2766
45.9567
49.8754
52.8435
54.7083
55.3533
54.5062
53.0029
47.2293
43.5044
38.7545
33.8595
29.2125
25.0683
21.5629
18.7542
16.7524
15.2798
13.9409
13.1799
12.4701
11.2799
10.8344
9.63689
7.71387
5.81609
4.1981
1.95347
0.0746416
-2.37901
-3.80235
-5.91464
-7.64914
-9.38211
0.0161926
0.0106016
0.00447924
-0.00188608
-0.0081586
-0.0140276
-0.0192299
-0.0235766
-0.0269793
-0.0294744
-0.0312376
-0.032587
-0.0339634
-0.0358713
-0.0388047
-0.0431465
-0.0490397
-0.0563468
-0.064676
-0.07334
-0.08047
-0.0841209
-0.0826115
-0.0749834
-0.0619038
-0.0456981
-0.0299743
-0.0183322
-0.0142381
-0.0199372
-0.0364207
-0.0618804
-0.0914745
-0.123514
-0.157729
-0.189346
-0.209768
-0.206274
-0.177907
-0.107091
-0.0350329
-0.0784717
-0.153396
-0.280589
-0.466382
-0.284711
-0.186945
-0.19017
-0.441126
-0.463038
-0.185925
-0.171376
-0.509861
-0.679812
-0.418582
-0.121816
-0.241679
-0.543938
-0.611256
-0.326616
-0.154495
-0.310392
-0.622011
-0.703675
-0.602512
-0.735633
-1.18119
-1.79739
-2.37907
-3.14968
-4.30038
-6.07421
-8.18529
-10.8615
-14.2966
-18.3946
-23.752
-29.5126
-36.6079
-44.097
-52.1212
-60.4151
-69.48
-78.1541
-86.4066
-91.7744
-96.6002
-98.4306
-98.1565
-91.9645
-88.1829
-80.3435
-64.8507
-51.2542
-42.15
-13.178
-2.33225
14.3573
42.5788
70.3689
80.6029
98.964
114.734
127.394
136.954
143.761
145.598
139.811
126.68
109.265
91.1832
75.7846
65.9083
59.6417
56.0514
53.8186
49.8761
38.5399
18.1816
-8.68975
-28.3784
-56.0012
-68.1966
-73.0704
-73.8511
-71.65
-67.3331
-61.6447
-55.6697
-49.8868
-44.6004
-39.873
-35.6381
-31.7646
-28.0046
-24.1536
-20.0553
-15.5291
-9.9816
-5.74404
0.408009
5.30174
10.044
14.7274
19.5836
24.1786
27.7486
30.8025
33.203
35.1145
36.4937
37.0917
36.8091
36.3233
34.4856
30.0946
27.2896
24.8486
22.3398
20.3079
18.6206
17.1362
15.9607
15.1484
14.1203
13.2831
12.5199
10.7858
9.15785
7.36499
4.72541
2.21326
0.491263
-2.23357
-4.74086
-6.16689
-8.13779
-10.5734
-11.303
-12.4753
0.0441168
0.0496955
0.0533055
0.0553378
0.0560911
0.0558133
0.0546413
0.0525505
0.0493043
0.0444178
0.037206
0.0267593
0.0119354
-0.00808692
-0.0336918
-0.0648411
-0.100439
-0.137809
-0.172284
-0.19743
-0.206461
-0.196901
-0.167175
-0.116818
-0.0560386
0.00204074
0.0431925
0.0646739
0.0650303
0.0475454
0.0141211
-0.0261747
-0.0542505
-0.0929999
-0.156192
-0.242641
-0.323304
-0.361139
-0.339409
-0.0702345
0.284396
0.154232
0.0646343
-0.228615
-1.06077
-0.339511
0.670056
-0.0168437
-1.13877
-0.651916
0.782449
0.833454
-0.556746
-1.17597
-0.0396792
1.20754
0.818212
-0.297843
-0.4646
0.588162
1.18955
0.599122
-0.437626
-0.714256
-0.689242
-1.36951
-3.02474
-5.02352
-7.17112
-9.67957
-12.9572
-17.0313
-21.5306
-26.4534
-31.8594
-37.6427
-44.0802
-50.1136
-56.4542
-61.6211
-66.9287
-70.8959
-74.1927
-75.3495
-75.3895
-74.5018
-72.4463
-68.2249
-60.2979
-50.5969
-43.0698
-33.1042
-11.9247
-3.53761
9.98022
33.2328
52.4242
67.4506
93.5584
107.356
123.05
137.214
147.53
153.642
158.066
159.461
153.629
139.311
118.769
96.8642
77.5594
63.3623
55.0831
51.1347
49.642
48.1055
42.228
27.9424
6.25075
-17.3262
-37.0664
-58.9213
-65.5759
-68.7583
-69.0547
-67.073
-63.3321
-58.4332
-52.9945
-47.5131
-42.3797
-37.7381
-33.5994
-29.8728
-26.3781
-22.9186
-19.3642
-15.6769
-11.2733
-7.26674
-3.74466
0.252387
3.95635
7.63874
11.5422
14.4407
16.5426
18.2834
19.9464
21.149
21.4396
21.4894
21.2565
21.0647
21.4005
21.0786
19.6909
17.4435
16.3994
15.7716
15.2477
14.7256
13.9435
13.579
12.4298
11.3028
9.26493
6.62442
4.43334
2.41952
-0.777502
-4.01363
-5.2972
-7.7906
-10.5754
-12.0754
-13.4117
-14.5496
-14.8456
-15.1079
-0.0102298
0.0615474
0.133834
0.205519
0.274428
0.337667
0.391558
0.432099
0.455176
0.456188
0.43242
0.381983
0.299006
0.186129
0.0505539
-0.104488
-0.26816
-0.424297
-0.549787
-0.615949
-0.596318
-0.52221
-0.382198
-0.151928
0.0577632
0.201144
0.216856
0.181205
0.122645
0.0697533
0.0418513
0.0584542
0.160653
0.292443
0.0603054
-0.322763
-0.574176
-1.00824
-1.13502
0.0854533
1.49063
1.14176
1.40677
-1.26601
-4.3178
0.399758
4.7362
0.664127
-4.23443
-1.36083
4.99271
5.0738
-0.351992
-2.27003
2.33731
6.38281
5.16214
2.15821
1.85991
3.7705
4.52992
2.84907
0.496928
-1.15542
-2.68043
-5.13326
-8.45038
-12.2475
-16.1038
-20.2206
-24.5087
-29.1321
-33.5854
-38.135
-42.1918
-46.1375
-49.4119
-52.175
-54.5011
-55.8725
-57.8392
-57.4188
-56.5923
-52.4718
-48.8946
-44.9074
-37.4666
-32.201
-17.4071
-10.8661
-0.121929
16.1892
32.4599
47.757
63.5587
82.3453
100.411
116.548
134.053
149.987
159.385
169.04
173.153
173.469
173.6
169.431
155.952
132.97
106.431
82.2709
63.727
51.8114
45.8374
43.9558
43.8056
42.018
34.0847
18.6212
-2.61471
-21.5937
-42.9977
-57.2627
-62.0186
-64.2131
-64.1745
-62.4474
-59.3209
-55.1816
-50.392
-45.4399
-40.6929
-36.3177
-32.3833
-28.8333
-25.5698
-22.3875
-19.2189
-15.9905
-12.6122
-9.07067
-6.51042
-3.32603
-0.165801
2.78314
5.642
7.50559
8.96844
10.0577
10.9735
10.6092
9.55486
8.79224
8.99375
9.63564
10.2844
10.9565
11.201
11.6021
11.4531
11.6367
11.4087
10.7079
9.87951
8.40594
6.52346
4.95259
1.99444
-1.42995
-4.33565
-6.05413
-9.27252
-12.8936
-13.9323
-16.1122
-17.7204
-18.6549
-19.0156
-18.6319
-18.1127
-16.6116
-0.360085
-0.0692879
0.235844
0.550602
0.867001
1.16933
1.4323
1.63297
1.75764
1.77218
1.68363
1.52716
1.19336
0.740797
0.28077
-0.275617
-0.836175
-1.34105
-1.70388
-1.79543
-1.55364
-0.994279
-0.203891
0.469469
0.854508
0.919376
0.23851
-0.227647
-0.451795
-0.58377
-0.0475765
0.746448
2.13511
2.35242
1.88701
-0.993759
-4.31348
-4.65139
-4.70382
2.82828
9.30144
7.45532
6.65696
-10.6476
-19.4708
8.48738
22.7785
2.54272
-12.4132
-0.780205
16.323
15.7757
4.90542
1.55115
7.12573
11.0817
9.24761
5.64589
3.66551
2.69244
1.22053
-1.80278
-5.23688
-8.499
-11.5914
-15.1182
-18.6755
-22.4971
-25.8869
-29.3026
-32.3866
-35.4227
-38.2824
-40.8338
-42.4432
-44.0837
-44.1571
-44.5322
-43.0078
-41.4126
-40.1006
-35.6939
-32.5231
-23.3179
-19.1839
-11.9795
0.000337131
9.90304
23.4358
36.6076
50.1415
65.9091
82.7948
99.5865
116.199
133.262
149.226
163.662
177.46
184.143
197.017
198.884
195.999
190.658
187.339
177.044
154.68
123.779
92.7961
68.0353
51.3743
42.1182
38.4153
38.0165
38.2682
35.5815
26.293
11.3364
-7.92616
-23.0895
-45.3059
-54.5954
-59.4018
-60.9774
-60.2157
-58.4667
-55.6551
-52.1216
-47.8937
-43.4615
-39.1837
-35.1588
-31.5233
-28.2185
-25.2473
-22.3876
-19.5599
-16.7895
-13.9508
-11.0807
-8.13844
-6.01873
-2.86396
-0.185263
2.30761
4.23359
5.79347
6.71118
6.83379
5.13937
2.40091
0.0700406
-1.54253
-1.3823
0.712504
2.22541
3.28967
3.96757
4.35559
4.42355
3.67901
2.4996
0.798257
-1.89972
-4.97254
-6.97421
-10.8085
-15.2915
-17.8266
-19.9803
-22.8897
-24.9052
-25.4394
-26.4895
-26.8019
-26.1167
-24.7954
-22.4665
-20.9041
-17.8273
-1.08311
0.18258
1.41417
2.61494
3.81216
4.96171
5.87588
6.39673
6.62721
6.17511
5.20241
4.62769
2.71487
0.191134
-0.762109
-2.68064
-4.44033
-5.25757
-5.05362
-3.79392
-1.2051
1.66762
4.19551
5.71349
4.80719
1.28617
-4.57019
-9.48406
-10.9443
-5.39762
2.66474
12.3172
20.4207
19.6366
9.08582
-14.4641
-32.248
-33.7069
-13.7221
30.2876
54.2337
44.6439
3.25193
-54.6341
-38.8716
29.9762
41.4768
8.28874
-7.1837
3.07525
14.7978
13.8716
6.04243
2.12959
2.55468
2.4297
-0.289023
-4.05859
-6.96452
-9.41974
-11.9372
-15.1279
-18.1475
-21.0664
-23.8149
-26.7439
-29.3171
-32.0986
-34.1243
-35.9679
-37.5198
-38.3942
-39.3674
-38.7735
-38.0922
-37.3796
-34.3849
-32.1902
-25.9821
-22.932
-17.6164
-8.64889
-0.969868
9.36133
19.9465
31.2137
44.7634
58.7749
74.3787
90.4714
106.702
123.66
140.972
157.916
174.07
189.395
202.899
214.433
223.518
228.111
229.556
224.812
217.623
213.871
205.242
186.166
153.159
114.439
80.1666
55.9143
41.5859
34.8061
32.8372
33.113
32.9274
29.1348
19.6424
6.2998
-9.63454
-23.1941
-43.343
-53.3864
-59.3844
-61.6103
-60.6718
-57.7742
-54.5667
-50.2892
-46.0278
-41.5827
-37.3843
-33.4026
-29.8438
-26.6326
-23.7699
-21.2809
-18.8425
-16.6988
-14.5412
-12.2079
-9.43762
-7.19435
-4.31375
-1.34958
1.53911
4.30374
6.79281
8.58513
8.85631
6.79457
1.98004
-3.72419
-10.1787
-13.5199
-10.8091
-8.28669
-6.95271
-6.71504
-7.0371
-7.40544
-9.09298
-12.9273
-16.4585
-20.795
-24.8159
-28.3158
-32.8229
-36.5885
-38.7744
-40.3989
-41.7156
-41.7365
-40.4842
-39.5608
-37.7756
-34.6525
-30.7261
-26.1034
-23.323
-18.3119
11.2239
18.5621
24.3672
28.3901
31.1202
32.6103
32.1933
28.7635
22.8161
14.0862
3.87099
-7.40188
-18.8309
-29.0743
-37.0105
-39.0048
-33.9209
-20.326
-0.419903
21.7852
44.5978
58.7278
58.4271
42.4728
4.16766
-47.5514
-92.9555
-109.05
-75.6915
-4.44316
73.4606
127.875
130.72
73.5475
-21.3821
-101.353
-120.954
-73.1068
16.7866
88.3788
94.8863
43.2301
-23.2357
-50.5883
-17.1794
23.9729
22.212
1.80196
-6.75408
-2.4546
1.1148
-2.03954
-7.50423
-10.3729
-11.523
-13.3013
-16.3681
-19.8626
-22.7448
-25.4598
-27.9359
-30.8683
-33.2735
-35.6858
-37.6375
-39.4189
-40.6852
-42.1707
-42.0922
-42.1378
-41.7329
-39.8727
-38.1686
-33.4701
-30.8821
-26.3539
-18.8881
-12.2917
-3.55308
5.85837
16.0155
28.4252
41.4328
55.8808
71.2919
87.4007
104.64
122.457
141.019
159.769
178.299
196.601
214.32
230.905
245.895
258.99
269.478
277.095
281.005
281.014
276.44
264.11
249.591
238.855
226.208
200.204
157.405
109.448
71.632
47.9075
35.5621
30.5556
29.4342
29.4542
28.1648
23.3872
14.6341
3.57049
-8.87523
-20.3629
-38.6323
-52.9921
-63.1674
-67.6291
-65.6101
-61.1817
-57.415
-52.8925
-47.8596
-42.4923
-37.4115
-32.635
-28.2819
-24.5646
-21.3115
-18.854
-16.299
-14.3876
-12.5026
-10.6591
-7.90024
-6.11883
-2.74984
0.544177
4.22627
8.21284
12.2411
15.7758
17.7375
16.6786
10.7016
0.0665288
-14.0282
-28.6511
-28.5297
-24.4035
-24.0262
-23.8549
-26.1188
-30.1032
-35.3665
-41.8554
-47.9422
-54.0831
-59.1934
-63.5851
-67.5074
-69.7991
-70.2581
-69.6813
-67.9761
-64.8061
-60.4051
-56.5259
-51.5977
-45.2274
-37.4993
-30.3661
-26.1293
-18.6964
283.111
331.202
360.067
363.453
336.863
285.691
211.463
116.894
10.4598
-101.607
-207.297
-299.075
-364.93
-390.505
-358.959
-257.312
-89.5092
115.263
305.654
429.372
455.972
366.504
170.284
-79.3721
-331.614
-473.037
-430.114
-228.266
44.5919
259.962
328.043
244.299
81.6033
-60.5341
-120.061
-103.455
-56.0611
-10.2781
26.6112
47.3946
40.0115
8.27287
-24.6337
-31.07
-10.7287
5.43614
-1.64004
-13.777
-17.701
-16.4072
-17.0212
-21.1444
-25.93
-28.9579
-31.3779
-34.2691
-37.7119
-41.222
-44.1871
-47.022
-49.3287
-51.8561
-53.4357
-55.1698
-55.659
-55.6875
-55.3429
-54.6583
-50.907
-48.7766
-45.0443
-38.7983
-32.6128
-24.3379
-15.2463
-5.18076
7.01057
20.0861
34.8169
50.9196
68.039
86.7535
106.425
127.151
148.742
170.879
193.459
216.113
238.701
260.745
281.791
301.574
319.64
335.445
348.541
358.511
364.848
367.065
364.416
357.673
345.002
323.185
300.03
284.153
265.433
226.945
168.885
111.354
69.6388
45.6354
34.2533
30.0137
28.853
27.9466
25.2944
19.8261
12.0919
3.32644
-6.20968
-16.2781
-31.4527
-50.8703
-70.0607
-80.5349
-82.6744
-76.7096
-71.9968
-66.7151
-60.1039
-52.5932
-44.8843
-37.2637
-29.8554
-23.5223
-17.3188
-12.9884
-9.13271
-5.80421
-3.05842
-0.981712
1.52228
3.95437
7.27485
11.0012
15.3955
20.3889
25.6978
30.7786
35.0903
35.9853
30.5116
14.3053
-7.43927
-46.9244
-60.3783
-53.3785
-54.576
-59.9645
-67.0507
-76.059
-86.0757
-96.2548
-105.151
-112.621
-117.965
-121.426
-122.79
-121.659
-118.25
-113.274
-106.681
-98.6572
-89.3492
-81.149
-71.6181
-60.9321
-47.5321
-37.6066
-31.2083
-20.1776
2255.76
2077.55
1738.97
1253.51
671.264
67.2605
-525.465
-1038.25
-1416.22
-1650.96
-1727.96
-1632.4
-1354.51
-888.769
-257.459
458.419
1106.93
1506.72
1534.31
1195.98
608.424
-64.218
-644.351
-970.852
-954.727
-631.342
-154.551
266.29
467.734
411.354
190.92
-35.3785
-148.038
-129.088
-49.2891
5.64596
8.27707
-6.62566
-3.91446
8.40288
4.31909
-17.9143
-36.4396
-32.0738
-17.7734
-15.7966
-27.6422
-36.8947
-39.2811
-40.5369
-44.6023
-50.6332
-56.1655
-60.3939
-64.3125
-68.5577
-72.8579
-76.8346
-79.9889
-82.7687
-84.553
-86.1529
-86.2234
-86.2119
-83.5149
-80.5696
-77.4677
-72.0092
-63.155
-54.3966
-44.5538
-31.9117
-17.6265
-1.13183
17.1977
37.0244
58.8756
82.3497
107.597
134.528
162.748
192.274
222.611
253.613
284.973
316.273
347.114
377.003
405.598
432.312
456.571
477.974
495.923
509.82
519.262
523.775
523.029
516.417
503.434
485.562
460.191
424.208
388.372
363.037
333.784
279.097
202.292
130.308
80.9765
53.9595
41.4198
36.2405
33.671
30.8653
26.3963
20.1705
13.1828
6.16757
-1.08943
-9.84105
-22.0194
-43.648
-76.327
-101.636
-115.664
-113.625
-107.557
-103.957
-97.1166
-87.5019
-75.7543
-62.5962
-49.1297
-36.1154
-20.7952
-8.21472
-1.8765
11.724
18.7525
24.8844
30.8191
36.1922
41.6112
47.1086
52.7894
58.5107
63.8603
68.1786
70.3734
69.5377
62.4261
42.7849
15.7757
-62.0786
-116.199
-110.473
-121.98
-137.015
-153.787
-171.313
-187.797
-202.128
-213.115
-220.31
-223.543
-223.045
-218.748
-210.971
-200.307
-187.615
-172.992
-156.995
-139.794
-124.429
-107.443
-90.1645
-67.2743
-53.7125
-42.6745
-25.2612
4540.06
3839.52
2864.67
1675.75
360.414
-958.684
-2144.29
-3070.31
-3623.71
-3731.5
-3388.12
-2643.3
-1599.21
-400.832
778.683
1752.95
2343.59
2419.85
1956.54
1078.18
39.8085
-861.181
-1388.31
-1436.36
-1042.07
-375.302
298.548
720.692
754.704
449.876
14.6869
-304.844
-371.283
-226.372
-34.8857
60.0845
43.4542
-4.93596
-26.1292
-32.3462
-52.3571
-77.8986
-81.1821
-61.9188
-49.3561
-64.5344
-87.5062
-97.5073
-99.6397
-104.572
-114.893
-126.027
-134.489
-140.951
-147.23
-153.626
-159.263
-163.521
-165.783
-166.756
-165.57
-163.158
-157.948
-150.83
-140.619
-127.661
-112.322
-94.7934
-72.9286
-47.6427
-19.5262
11.5245
45.8183
83.5455
124.433
167.752
213.613
261.665
311.706
363.515
416.398
469.89
523.217
575.912
627.322
676.647
723.11
765.912
804.387
837.675
865.038
885.919
899.492
905.23
902.909
892.033
872.663
844.413
807.116
763.24
709.863
644.329
581.194
532.568
479.589
397.49
289.82
190.923
124.347
87.5763
69.2319
59.6432
52.7782
45.6397
37.5057
29.3126
22.3115
16.6435
11.4369
4.65873
-6.24191
-25.8557
-77.0625
-125.475
-164.804
-184.083
-189.172
-197.636
-199
-193.331
-180.74
-162.059
-138.565
-111.235
-80.1451
-47.5416
-20.3086
14.7207
44.3079
74.6953
100.251
123.439
144.354
162.86
178.305
189.659
195.542
194.588
186.186
171.021
149.978
116.032
66.1074
-49.6723
-200.582
-244.545
-292.946
-338.586
-382.232
-421.069
-451.788
-471.631
-484.205
-488.315
-484.235
-472.772
-454.357
-430.395
-402.208
-371.137
-337.646
-302.767
-266.891
-234.121
-199.815
-164.125
-119.827
-98.0133
-73.9908
-40.0247
-14.1534
-14.861
-17.5602
-22.8504
-29.4393
-36.7152
-44.3082
-51.6829
-58.2233
-63.2113
-65.8819
-65.8257
-62.5284
-56.8098
-48.8484
-42.0492
-36.9557
-38.391
-48.4006
-62.7339
-89.9634
-113.19
-133.702
-147.539
-116.603
-10.351
-10.8667
-12.2832
-14.8153
-17.8466
-21.1485
-24.5589
-27.815
-30.6234
-32.6722
-33.6049
-33.2771
-31.436
-28.6408
-24.8864
-22.0685
-20.2123
-21.7072
-27.8744
-34.9031
-49.5042
-59.8479
-71.2278
-76.356
-63.165
-8.6421
-9.25624
-10.3556
-12.0422
-13.7468
-15.5574
-17.4076
-19.1479
-20.5985
-21.6201
-21.9938
-21.6715
-20.4576
-18.8137
-16.5973
-15.1578
-14.2579
-15.4654
-19.6549
-23.8498
-33.0839
-38.9259
-46.5132
-49.1136
-42.2248
-7.56881
-8.56837
-9.66461
-11.2661
-12.3609
-13.4845
-14.5945
-15.6025
-16.3774
-16.8928
-16.9771
-16.6724
-15.7682
-14.7054
-13.2097
-12.4124
-11.8401
-12.7776
-15.6305
-18.4252
-24.5177
-28.3185
-33.699
-35.346
-31.6087
-6.9251
-8.37406
-9.49436
-11.3026
-12.1987
-13.0552
-13.8447
-14.5135
-14.9448
-15.1723
-15.0933
-14.7842
-14.0201
-13.2634
-12.1247
-11.6738
-11.2034
-11.9783
-13.8744
-15.9726
-20.0127
-22.8091
-26.7653
-27.9832
-25.964
-6.19204
-8.17594
-9.84054
-11.6227
-12.4733
-13.3005
-14.0113
-14.574
-14.863
-14.9459
-14.7739
-14.4465
-13.7373
-13.1379
-12.1849
-11.9456
-11.5105
-12.2389
-13.4555
-15.2491
-17.8694
-20.1926
-23.071
-24.0381
-22.9788
-5.40467
-8.22807
-10.0183
-11.6647
-12.7778
-13.7213
-14.4903
-15.0878
-15.3624
-15.4078
-15.1914
-14.841
-14.1471
-13.6137
-12.7641
-12.6584
-12.2583
-13.0341
-13.8147
-15.5356
-17.1883
-19.444
-21.2013
-22.0477
-21.4924
-4.42742
-7.79633
-9.90658
-11.6085
-12.9218
-14.0444
-14.9739
-15.6802
-16.0238
-16.1045
-15.8838
-15.5123
-14.8167
-14.2847
-13.4969
-13.4604
-13.1124
-13.9875
-14.5502
-16.3285
-17.4196
-19.6187
-20.6029
-21.2412
-20.8267
-2.894
-6.78518
-9.33473
-11.2475
-12.787
-14.1154
-15.246
-16.143
-16.6088
-16.7702
-16.5868
-16.2028
-15.5004
-14.9217
-14.1752
-14.1439
-13.8608
-14.8396
-15.357
-17.2767
-18.1373
-20.2638
-20.7428
-21.123
-20.5625
-1.15962
-5.21394
-8.27151
-10.4883
-12.2844
-13.852
-15.2106
-16.3125
-16.9708
-17.2428
-17.1331
-16.7539
-16.0492
-15.3907
-14.6819
-14.5931
-14.3882
-15.4323
-16.0224
-18.136
-19.0183
-21.0747
-21.2374
-21.3435
-20.4229
0.924506
-3.17085
-6.59166
-9.15753
-11.263
-13.1167
-14.7447
-16.0857
-16.9565
-17.4001
-17.392
-17.0451
-16.3508
-15.5975
-14.9402
-14.7365
-14.6439
-15.6743
-16.4169
-18.7596
-19.8356
-21.856
-21.8204
-21.6596
-20.2232
3.07915
-0.636232
-4.2816
-7.16023
-9.61176
-11.8
-13.732
-15.3544
-16.4573
-17.0967
-17.2417
-16.9631
-16.2952
-15.4548
-14.8779
-14.5142
-14.6098
-15.4946
-16.4752
-19.0767
-20.437
-22.4958
-22.3243
-21.9195
-19.8419
5.69041
2.53354
-1.61815
-4.44954
-7.27471
-9.81167
-12.0813
-14.0135
-15.3831
-16.2185
-16.5534
-16.3795
-15.7653
-14.8716
-14.4
-13.8771
-14.064
-14.9962
-16.1923
-19.0574
-20.7073
-22.9538
-22.6532
-22.0573
-19.1844
7.8476
4.83235
1.70644
-0.666395
-4.35353
-7.12437
-9.74239
-12.0162
-13.658
-14.7055
-15.2086
-15.1761
-14.6414
-13.7615
-13.3031
-12.8135
-13.0445
-14.084
-15.4778
-18.7685
-20.5323
-23.2691
-22.7549
-22.1281
-18.0968
10.091
7.77539
5.11547
2.20537
-1.05939
-3.21495
-6.5787
-9.5406
-11.2952
-12.547
-13.1752
-13.2728
-12.824
-12.0229
-11.5516
-11.2013
-11.5034
-12.7157
-14.345
-18.1956
-20.1533
-23.2708
-22.602
-21.7716
-16.7748
11.55
10.0411
8.14486
5.65396
2.66148
-0.618851
-3.02414
-5.51114
-8.47434
-9.87208
-10.5337
-10.6786
-10.2879
-9.58281
-9.14522
-8.97017
-9.38696
-10.8611
-12.8015
-17.377
-19.6228
-23.0606
-22.157
-21.0205
-15.1215
11.2201
11.0633
10.1411
8.38389
5.87719
2.94125
-0.109289
-2.3998
-4.21455
-7.00425
-7.53488
-7.54783
-7.12396
-6.46889
-6.12243
-6.14181
-6.70202
-8.47891
-10.8692
-16.4218
-19.088
-22.7276
-21.3965
-19.8881
-13.0909
7.74595
9.75007
10.3969
9.7869
8.12472
5.73726
3.00101
0.267869
-1.58687
-3.0502
-4.60331
-4.23198
-3.57225
-2.87843
-2.59465
-2.87478
-3.55639
-5.42807
-8.62841
-15.5418
-18.8473
-22.2753
-20.3301
-18.4087
-10.6687
-0.309323
5.6058
8.19837
9.15253
8.65874
7.10253
4.91896
2.55382
0.39253
-0.775818
-1.6642
-1.31054
-0.0751748
0.704634
1.35226
0.438343
-0.225411
-2.05802
-5.87831
-14.8208
-19.7625
-21.1769
-19.0374
-16.497
-7.82276
-7.33157
-4.57485
2.64668
5.97188
6.89182
6.3582
4.91308
3.00328
1.15589
-0.090828
-0.299622
0.339924
1.63904
4.65756
5.19693
3.80575
2.49698
1.09139
-2.97994
-14.1808
-20.3734
-20.6823
-17.8339
-13.8865
-4.70601
-14.6652
-10.2678
-7.75359
-1.36166
3.04264
3.26324
2.54118
1.23499
-0.235568
-1.13844
-1.02772
0.0451784
2.02066
6.50767
7.78245
6.35398
4.42988
3.18726
-0.817502
-13.6842
-21.2326
-20.659
-16.9209
-11.0687
-1.07636
-20.6112
-16.8163
-12.646
-10.3232
-5.85658
-1.433
-1.96287
-2.70297
-3.72224
-4.16494
-4.48939
-2.56307
-0.296388
3.44238
9.1182
7.61948
5.18632
3.96741
0.0163138
-12.5085
-23.8675
-21.1317
-16.073
-7.78281
2.14539
-21.4993
-20.4009
-18.0139
-15.023
-12.1876
-10.6072
-8.19331
-8.62341
-8.91589
-9.92581
-11.6735
-9.4991
-5.40411
-1.60165
2.7708
6.0992
3.65921
2.52357
-1.28539
-13.2723
-26.6426
-22.1078
-15.2319
-3.63162
4.45642
-14.4393
-16.8427
-18.2791
-17.0113
-15.5797
-14.2045
-13.3907
-13.0599
-13.7896
-15.9435
-17.9955
-18.2173
-15.5013
-10.0477
-4.53371
-1.93553
-1.27326
-1.88969
-5.41569
-17.4284
-27.9136
-22.4331
-13.6134
-2.30736
5.23008
-10.0935
-12.9735
-13.8295
-15.0553
-15.1444
-14.8464
-14.6343
-14.5666
-15.7322
-18.552
-21.8384
-23.4941
-22.2443
-18.5415
-13.6293
-9.11174
-6.70071
-7.15725
-10.5384
-22.1571
-27.542
-21.4954
-11.9732
-3.09608
4.98161
-6.05057
-8.82669
-10.3051
-11.901
-12.5407
-13.0078
-13.7376
-14.047
-15.3235
-18.3432
-22.5275
-25.7999
-26.4463
-24.1312
-19.9288
-15.3717
-11.9011
-11.2825
-15.2318
-25.0759
-27.1045
-19.592
-10.7166
-4.01822
4.55332
-1.61647
-4.70081
-7.17927
-8.63963
-9.52366
-10.8436
-11.4531
-12.3247
-13.6933
-16.4447
-21.139
-25.6294
-27.8427
-27.2668
-24.3704
-19.8392
-15.6068
-14.3979
-18.9041
-26.2503
-26.1133
-17.8327
-9.76148
-4.90125
4.13866
1.4336
-1.44388
-3.59927
-5.32972
-6.6748
-7.69256
-9.19747
-10.086
-11.3459
-13.6518
-18.3537
-23.8353
-27.3676
-28.4258
-26.944
-22.9911
-18.5693
-17.214
-21.734
-26.3901
-24.8578
-16.0718
-8.99693
-5.56633
3.83859
3.95445
1.39809
-0.551376
-2.01524
-3.30651
-4.6176
-5.74268
-7.40811
-8.8934
-10.431
-13.9311
-20.5412
-25.2485
-27.779
-27.845
-24.8635
-20.786
-19.5635
-23.3838
-26.2473
-23.4512
-14.3623
-8.30094
-5.71878
3.60553
5.97004
3.80865
2.19125
0.961773
-0.0872797
-1.09968
-2.33893
-3.58183
-5.53929
-7.64483
-9.72764
-14.6627
-21.7557
-25.3337
-26.9163
-25.254
-22.0949
-21.2388
-24.2811
-25.7223
-22.0116
-12.9476
-7.61467
-5.39504
3.12203
7.50213
5.77075
4.52526
3.61843
2.87671
2.15268
1.32936
0.219297
-1.19832
-3.71095
-6.50418
-9.25157
-15.6581
-21.3458
-24.1817
-24.0817
-22.3638
-22.1599
-24.6161
-24.9532
-20.6858
-12.0526
-7.02764
-4.58694
2.13473
8.61656
7.30298
6.43038
5.87912
5.50772
5.14211
4.63389
3.98025
2.98773
1.18429
-2.22151
-5.50532
-8.86753
-15.838
-19.9571
-21.4717
-21.6405
-22.4369
-24.6071
-24.1844
-19.661
-11.7552
-6.87501
-3.75178
1.00502
9.40552
8.46041
7.93571
7.74354
7.75327
7.7623
7.60068
7.29439
6.87396
5.78123
3.03128
-1.4645
-4.43803
-8.6157
-14.8624
-17.7501
-20.1772
-22.3542
-24.536
-23.6907
-19.189
-12.0551
-7.39883
-3.53271
-0.0547969
9.95365
9.32842
9.11523
9.24239
9.59121
9.95419
10.1215
10.1345
10.169
9.83309
7.91081
3.66291
-1.3311
-3.82291
-7.94092
-13.2546
-18.3646
-22.3227
-24.8103
-23.8557
-19.6594
-13.042
-8.45185
-3.92285
-1.07329
10.3326
9.97472
10.0179
10.3981
11.0196
11.678
12.1224
12.3949
12.8039
13.1065
11.9891
8.26582
2.80417
-1.26811
-3.38173
-7.75181
-16.2173
-22.9601
-25.6551
-24.6826
-20.8042
-14.774
-10.2345
-5.02943
-2.17615
10.5636
10.4124
10.6444
11.2001
12.0124
12.8824
13.5243
13.9783
14.6665
15.4804
15.0385
11.8267
6.25411
1.06644
-0.704766
-4.21657
-12.2521
-25.2685
-27.4222
-26.4395
-23.0214
-17.3363
-12.5814
-6.97854
-3.06378
10.6407
10.6274
10.9703
11.6129
12.5196
13.4958
14.2327
14.7782
15.6426
16.8215
16.8683
14.046
8.48165
2.8357
0.148497
-2.35057
-10.3829
-27.2177
-29.9487
-29.1243
-26.1891
-20.5936
-15.3442
-8.92149
-4.17133
10.4954
10.5462
10.9193
11.5549
12.4535
13.4193
14.1343
14.6755
15.6106
16.9984
17.3307
14.7233
9.16998
3.28547
0.235841
-2.2147
-10.6715
-29.8108
-33.0265
-32.5434
-30.0385
-24.2227
-18.2335
-10.6869
-5.27621
10.0229
10.0263
10.3494
10.8908
11.6822
12.5248
13.1
13.5359
14.4487
15.8993
16.3299
13.7516
8.20496
2.36113
-0.626387
-3.39347
-12.8539
-33.15
-36.4139
-36.334
-34.0836
-27.711
-20.8517
-12.0198
-6.23855
9.08798
8.88689
9.11746
9.48272
10.0685
10.6845
11.0161
11.2499
12.0785
13.5063
13.8384
11.168
5.70567
0.209192
-2.34156
-5.6801
-16.4941
-36.7616
-39.734
-39.9538
-37.6471
-30.4371
-22.7621
-12.736
-6.89225
7.56391
7.06527
7.16593
7.25795
7.53654
7.83327
7.83493
7.83598
8.57485
9.91179
10.0485
7.26252
2.05072
-2.78239
-4.65515
-8.84942
-20.977
-39.8776
-42.4585
-42.7055
-39.9491
-31.7939
-23.5616
-12.8872
-6.92673
5.67297
4.92934
4.58704
4.26842
4.16131
4.04847
3.69207
3.52664
4.25747
5.52203
5.44419
2.61959
-2.1221
-5.98257
-7.48996
-12.275
-25.5794
-41.6479
-43.9243
-43.8159
-40.2416
-31.319
-22.8956
-12.8323
-5.87999
3.40894
2.25606
1.51651
0.793931
0.302068
-0.160108
-0.763038
-0.907135
-0.0173467
1.24716
0.99338
-1.75545
-5.84904
-8.59227
-10.1054
-15.3756
-29.5884
-41.067
-43.4004
-42.602
-38.0433
-28.8633
-20.5633
-12.4455
-3.99397
0.910579
-0.585242
-1.66486
-2.67893
-3.38751
-4.01041
-4.62843
-4.51292
-3.31929
-2.02029
-2.43307
-5.0343
-8.41082
-10.0594
-11.8673
-17.848
-31.9029
-38.0772
-40.8002
-39.124
-33.7176
-24.8436
-17.0067
-11.0414
-1.93139
-1.85077
-3.22156
-4.86225
-5.74944
-6.47715
-7.01226
-7.39653
-6.8382
-5.29297
-4.00613
-4.59713
-7.00058
-9.44295
-10.4274
-12.792
-19.8249
-29.8575
-34.5682
-36.2657
-33.7187
-27.7982
-19.6436
-12.6705
-8.51392
0.152293
-4.51694
-6.37794
-7.16843
-8.10341
-8.83172
-8.93945
-8.86039
-7.77767
-5.93489
-4.7519
-5.52833
-7.61084
-8.70756
-10.051
-12.7079
-19.4119
-26.2244
-29.5125
-30.0041
-26.7239
-20.7189
-13.5337
-7.86587
-5.03845
2.18436
-7.89759
-8.88242
-9.55336
-9.8044
-9.93548
-9.69819
-9.00547
-7.41981
-5.41018
-4.40178
-5.32602
-6.24877
-7.56433
-8.40418
-11.4713
-16.5269
-21.0342
-22.8645
-22.2251
-18.3962
-12.7767
-6.69678
-2.74858
-0.964215
4.04774
-10.5739
-10.7911
-10.8882
-10.7327
-10.1374
-9.21261
-7.89683
-5.8722
-3.92842
-3.08182
-3.34961
-4.28513
-5.06146
-5.71407
-8.5181
-11.5472
-14.2676
-14.6476
-13.0824
-8.90231
-4.15054
0.709129
2.54416
3.41859
5.54233
-12.6799
-11.9949
-11.5297
-10.5943
-9.13739
-7.58969
-5.66087
-3.10665
-1.68416
-0.431254
-0.156029
-1.02214
-1.38962
-1.6726
-3.63892
-4.73042
-5.89649
-4.87878
-2.66751
1.65936
5.05757
8.50871
7.90774
7.61885
6.58321
-13.7945
-12.8176
-10.9424
-9.27409
-6.91869
-4.66859
-2.59368
0.291281
2.93879
3.72941
3.78486
3.58484
3.6671
4.00917
3.16804
3.89387
4.14824
6.44096
8.99647
13.2559
14.8095
16.5517
13.2355
11.4826
6.87968
-14.4677
-12.3111
-9.15395
-6.54057
-3.34726
-1.17599
2.60761
5.67182
8.16768
9.26471
9.49254
9.81384
10.3927
11.5572
11.9444
14.3882
15.9981
19.3687
22.0217
25.9873
25.2011
24.8825
18.4815
14.8961
6.26361
-14.5419
-9.78087
-5.74981
-2.20292
0.556142
4.95099
9.07905
12.6911
15.3532
16.6883
17.2253
18.0129
19.1248
21.2153
22.8585
26.9629
29.9604
34.1722
36.8408
40.2752
36.6742
33.7956
23.9228
17.9458
4.67708
-12.4144
-6.75494
-0.689336
2.22738
7.49167
12.6809
17.6504
21.9242
24.9841
26.6528
27.54
28.7464
30.3954
33.4574
36.4013
42.221
46.7999
51.6825
54.5705
57.2374
50.3666
44.7498
29.8447
21.0388
2.15663
-9.3066
-2.33883
4.74257
9.14912
16.3748
23.0283
29.1851
34.4194
38.1483
40.3134
41.5845
43.179
45.3627
49.4634
53.8636
61.6996
68.3269
73.9979
77.7085
79.4173
68.8495
59.736
37.9953
25.24
-1.318
-5.6761
3.00841
9.80423
19.4401
28.442
37.3645
45.4899
52.3471
57.2608
60.2579
62.0572
64.0924
66.8542
72.1752
78.4088
89.0424
98.6999
105.992
111.708
112.457
97.7001
83.5154
51.7949
32.7386
-5.95649
-2.35568
5.92014
19.1004
32.2734
45.8653
59.0918
71.041
81.0801
88.3951
93.0659
95.8742
98.6122
102.085
108.996
117.837
133.001
147.845
159.234
169.385
169.814
150.22
127.507
79.5088
48.6468
-12.4407
-5.05486
8.54408
31.8018
55.9941
80.8651
105.035
126.967
145.522
159.43
168.786
174.53
178.9
183.481
193.093
207.074
232.412
259.68
283.544
305.785
308.619
281.305
238.615
153.333
93.8224
-24.4601
)
;

boundaryField
{
    inlet
    {
        type            calculated;
        value           uniform 0;
    }
    outlet
    {
        type            calculated;
        value           nonuniform List<scalar> 
57
(
-116.603
-63.165
-42.2248
-31.6087
-25.964
-22.9788
-21.4924
-20.8267
-20.5625
-20.4229
-20.2232
-19.8419
-19.1844
-18.0968
-16.7748
-15.1215
-13.0909
-10.6687
-7.82276
-4.70601
-1.07636
2.14539
4.45642
5.23008
4.98161
4.55332
4.13866
3.83859
3.60553
3.12203
2.13473
1.00502
-0.0547969
-1.07329
-2.17615
-3.06378
-4.17133
-5.27621
-6.23855
-6.89225
-6.92673
-5.87999
-3.99397
-1.93139
0.152293
2.18436
4.04774
5.54233
6.58321
6.87968
6.26361
4.67708
2.15663
-1.318
-5.95649
-12.4407
-24.4601
)
;
    }
    upperWall
    {
        type            calculated;
        value           nonuniform List<scalar> 
245
(
277.439
991.693
-180.718
-2496.17
-1099.35
794.701
1920.19
2022.41
1453.19
-881.665
-5046.64
-2635.26
39.7965
2279.39
3604.8
3814.15
2903.68
-567.894
-6572.41
-5699.15
-3598.93
-856.853
1846.19
4073.47
5538.88
5978.61
4995.36
311.095
-3498.19
-5420.2
-5919.81
-5394.11
-4177.68
-2492.03
-539.824
1424.58
3146.48
4376.31
5018.52
5013.54
4540.06
3839.52
2864.67
1675.75
360.414
-958.684
-2144.29
-3070.31
-3623.71
-3731.5
-3388.12
-2643.3
-1599.21
-400.832
778.683
1752.95
2343.59
2419.85
1956.54
1078.18
39.8085
-861.181
-1388.31
-1436.36
-1042.07
-375.302
298.548
720.692
754.704
449.876
14.6869
-304.844
-371.283
-226.372
-34.8857
60.0845
43.4542
-4.93596
-26.1292
-32.3462
-52.3571
-77.8986
-81.1821
-61.9188
-49.3561
-64.5344
-87.5062
-97.5073
-99.6397
-104.572
-114.893
-126.027
-134.489
-140.951
-147.23
-153.626
-159.263
-163.521
-165.783
-166.756
-165.57
-163.158
-157.948
-150.83
-140.619
-127.661
-112.322
-94.7934
-72.9286
-47.6427
-19.5262
11.5245
45.8183
83.5455
124.433
167.752
213.613
261.665
311.706
363.515
416.398
469.89
523.217
575.912
627.322
676.647
723.11
765.912
804.387
837.675
865.038
885.919
899.492
905.23
902.909
892.033
872.663
844.413
807.116
763.24
709.863
644.329
581.194
532.568
479.589
397.49
289.82
190.923
124.347
87.5763
69.2319
59.6432
52.7782
45.6397
37.5057
29.3126
22.3115
16.6435
11.4369
4.65873
-6.24191
-25.8557
-77.0625
-125.475
-164.804
-184.083
-189.172
-197.636
-199
-193.331
-180.74
-162.059
-138.565
-111.235
-80.1451
-47.5416
-20.3086
14.7207
44.3079
74.6953
100.251
123.439
144.354
162.86
178.305
189.659
195.542
194.588
186.186
171.021
149.978
116.032
66.1074
-49.6723
-200.582
-244.545
-292.946
-338.586
-382.232
-421.069
-451.788
-471.631
-484.205
-488.315
-484.235
-472.772
-454.357
-430.395
-402.208
-371.137
-337.646
-302.767
-266.891
-234.121
-199.815
-164.125
-119.827
-98.0133
-73.9908
-40.0247
-5.05486
8.54408
31.8018
55.9941
80.8651
105.035
126.967
145.522
159.43
168.786
174.53
178.9
183.481
193.093
207.074
232.412
259.68
283.544
305.785
308.619
281.305
238.615
153.333
93.8224
-24.4601
)
;
    }
    lowerWall
    {
        type            calculated;
        value           nonuniform List<scalar> 
272
(
-644.023
1147.05
1770.99
1045.3
-2466.46
-4210.51
-656.666
2333.36
3805.77
3538.17
1968.97
-5919.33
-7239.06
-3225.46
1584.48
5240.98
6838.62
5954.66
2209.74
-7085.71
-7784.03
-6063.9
-3073.85
382
3730.66
5873.21
5975.97
4287.95
1771.35
-666.581
-2489.9
-3517.11
-3832.35
-3517.94
-2864.85
-1883.92
-901.119
77.8541
1173.86
1444.62
-3.33924
-3.38941
-3.51156
-3.73101
-4.0729
-4.56515
-5.2868
-6.17578
-7.01617
-7.30165
-6.19927
-2.67742
4.30536
15.323
29.5707
44.1548
47.5096
46.9404
41.8472
38.4925
50.8948
57.4785
63.8147
73.4299
86.8588
190.068
834.782
-3.33924
-3.33143
-3.31528
-3.28935
-3.25171
-3.19921
-3.1276
-3.04377
-2.95214
-2.82012
-2.64522
-2.42513
-2.15488
-1.83061
-1.44556
-0.993472
-0.477143
0.0923109
0.7051
1.35482
2.02926
2.70716
3.35176
3.91534
4.372
4.71434
4.95089
5.03237
4.99713
4.78668
4.43497
3.82583
3.24215
1.95013
1.42756
0.617739
-0.643707
-1.3224
-1.63081
-1.81065
-1.24647
-0.905174
-0.431517
2.53942
-2.3119
-12.7437
-28.4961
-68.0558
-72.847
-63.3877
-59.4917
-83.3196
-179.832
-286.406
-359.14
-451.583
-535.969
-612.26
-679.542
-733.423
-774.456
-803.354
-821.301
-829.75
-830.028
-823.202
-810.135
-791.846
-768.678
-741.156
-709.552
-674.625
-635.347
-592.988
-549.713
-505.427
-473.504
-401.658
-353.357
-325.834
-269.323
-212.413
-172.757
-113.873
-67.479
-22.4601
29.5755
73.529
123.087
169.119
214.487
258.928
299.522
337.878
372.628
403.837
431.545
454.873
472.639
483
485.935
482.718
475.013
464.811
453.957
443.737
435.045
430.126
422.801
401.156
358.681
295.793
194.901
-76.2922
-170.81
-238.444
-299.776
-361.585
-429.387
-505.908
-579.897
-630.563
-667.958
-686.478
-688.02
-674.297
-642.503
-595.659
-543.013
-481.007
-404.425
-334.19
-267.829
-180.381
-112.093
-57.8672
36.481
121.653
156.177
214.596
287.582
346.216
400.929
453.556
503.473
550.853
596.676
640.796
685.665
735.443
792.878
857.83
923.85
977.89
1009.32
1012.87
936.64
786.019
616.864
465.885
345.429
253.649
184.499
132.272
92.6985
62.7973
40.4511
24.0582
12.3752
4.29664
-0.994165
-4.46673
-6.36283
-8.08655
-8.58273
-9.79896
-10.2719
-11.7183
-12.6035
-13.9474
-14.1534
-14.861
-17.5602
-22.8504
-29.4393
-36.7152
-44.3082
-51.6829
-58.2233
-63.2113
-65.8819
-65.8257
-62.5284
-56.8098
-48.8484
-42.0492
-36.9557
-38.391
-48.4006
-62.7339
-89.9634
-113.19
-133.702
-147.539
-116.603
)
;
    }
    frontAndBack
    {
        type            empty;
    }
}


// ************************************************************************* //
