/*--------------------------------*- C++ -*----------------------------------*\
| =========                 |                                                 |
| \\      /  F ield         | OpenFOAM: The Open Source CFD Toolbox           |
|  \\    /   O peration     | Version:  2112                                  |
|   \\  /    A nd           | Website:  www.openfoam.com                      |
|    \\/     M anipulation  |                                                 |
\*---------------------------------------------------------------------------*/
FoamFile
{
    version     2.0;
    format      ascii;
    arch        "LSB;label=32;scalar=64";
    class       volScalarField;
    location    "0.05";
    object      ddt0(k);
}
// * * * * * * * * * * * * * * * * * * * * * * * * * * * * * * * * * * * * * //

dimensions      [0 2 -3 0 0 0 0];

internalField   nonuniform List<scalar> 
12225
(
-0.000895842
0.00141949
-0.000217905
0.00781075
0.0101599
0.0371853
0.0468872
-0.0133619
0.188035
0.100211
0.176212
0.191817
0.26877
0.265888
0.322733
0.533252
0.331403
0.632084
-0.00091418
0.0066316
-0.0144377
0.00247483
-0.0253318
0.214874
-0.570677
0.0335208
1.88466
-1.75963
0.415031
-0.390432
-0.0494398
-0.311452
0.531696
-1.40051
-1.32735
1.29691
-6.15596e-05
0.00103229
0.00239522
0.00118674
0.0140112
-0.0322594
-0.00617002
0.00822969
0.0413677
-0.0110059
-0.0698564
0.11127
0.0151997
-0.131022
-0.000835702
0.318728
-0.312674
-0.524972
3.78678e-05
0.000496584
0.00184727
0.00206641
0.0082743
-0.019816
0.0244858
-0.0127118
0.0153208
0.018081
-0.0241028
0.0564048
0.00787272
-0.0186291
0.0542051
0.0849417
-0.138893
-0.0545569
5.8407e-05
0.000444058
0.00142191
0.00227421
0.00494885
-0.00594218
0.0133062
-0.00209689
0.0106272
0.0117746
0.000726028
0.0237889
0.0120463
0.00517881
0.0383732
0.0263793
-0.0497567
0.0351539
4.71088e-05
0.000447215
0.00130214
0.00241942
0.00395022
0.000267778
0.00840447
0.00386158
0.00914378
0.0103982
0.00841441
0.0156827
0.0136708
0.0119568
0.026941
0.0273644
-0.0362145
0.0425565
2.17452e-05
0.000442465
0.00128574
0.0025553
0.00380135
0.00308658
0.00707994
0.00656066
0.00926207
0.0107152
0.0112333
0.0143481
0.014773
0.0150629
0.0231169
0.0212079
-0.00421187
0.0339208
-1.01807e-05
0.000415366
0.00128217
0.00264765
0.00390245
0.0044746
0.00697595
0.00789356
0.00981733
0.0113724
0.0126306
0.0146071
0.0157113
0.0169542
0.0210423
0.0188018
0.0149855
0.0283339
-3.91044e-05
0.0003558
0.00124832
0.00266377
0.00401046
0.00517551
0.00716014
0.00860063
0.0103272
0.0119329
0.0134169
0.0150547
0.0163786
0.0178199
0.0199227
0.0194365
0.0205233
0.0251123
-8.37304e-05
0.000246908
0.00117466
0.00257066
0.00401991
0.00547059
0.00728717
0.00892082
0.0106089
0.0122278
0.0137573
0.0152564
0.0165915
0.0179083
0.0192105
0.0196639
0.0209273
0.0226862
-0.000172511
0.000127116
0.00104297
0.00238992
0.00388779
0.00546677
0.007224
0.00891652
0.0105842
0.0121754
0.0136622
0.0150391
0.0162577
0.0173426
0.0182378
0.0187854
0.0194615
0.0199925
-0.000225249
-1.54267e-05
0.00083881
0.00212551
0.00361819
0.0052271
0.00694245
0.00862319
0.0102466
0.0117711
0.0131617
0.0143916
0.0154253
0.0162454
0.0168062
0.0170701
0.0171518
0.0168866
-0.000255167
-0.000158211
0.000590395
0.00178685
0.00323199
0.0048157
0.00647529
0.00810729
0.00966128
0.0110908
0.012353
0.0134093
0.014221
0.014753
0.0149652
0.0148286
0.0143435
0.0133853
-0.000266583
-0.000299137
0.000284446
0.00132763
0.00265374
0.00413697
0.00568567
0.00720487
0.00862749
0.00989678
0.0109606
0.0117703
0.0122798
0.0124449
0.0122234
0.0115781
0.0104758
0.00880932
-0.000257789
-0.00040927
-3.80201e-05
0.000770272
0.00187339
0.0031459
0.0044794
0.00577889
0.00696431
0.00796817
0.0087288
0.00918955
0.00929802
0.0090059
0.00827013
0.00705399
0.00532718
0.00301871
-0.000227621
-0.000458606
-0.000313286
0.000185699
0.000944689
0.00185813
0.00282335
0.00374278
0.004534
0.00512349
0.00544309
0.00543296
0.0050401
0.00421949
0.00293652
0.00117137
-0.00107497
-0.00380059
-0.000175217
-0.000425456
-0.00047631
-0.000322081
-1.00833e-05
0.000390841
0.00080341
0.00114977
0.00135641
0.00135108
0.00107871
0.000484468
-0.000475017
-0.00183049
-0.0035951
-0.005755
-0.00825483
-0.0109925
-0.000100646
-0.000306989
-0.000498592
-0.000678474
-0.000864271
-0.00108374
-0.00137212
-0.00176921
-0.00231718
-0.00305368
-0.00401913
-0.00524184
-0.00674213
-0.00852542
-0.0105743
-0.0128345
-0.0151894
-0.0174363
-7.92429e-06
-0.000130692
-0.000427725
-0.000922969
-0.00161062
-0.00247542
-0.00350172
-0.00467777
-0.00599708
-0.00745719
-0.00905683
-0.0107927
-0.0126564
-0.0146259
-0.0166573
-0.0186684
-0.0205123
-0.0219192
7.03279e-05
-9.67288e-06
-0.000431202
-0.00120076
-0.00226883
-0.00357689
-0.00506948
-0.00669978
-0.00843092
-0.0102347
-0.0120893
-0.0139751
-0.0158676
-0.0177355
-0.0195325
-0.0211806
-0.0225393
-0.0233446
0.000116092
1.05821e-05
-0.000548844
-0.00151157
-0.00278532
-0.00428863
-0.00595368
-0.00772403
-0.0095553
-0.0114131
-0.0132695
-0.0150994
-0.0168771
-0.0185735
-0.0201497
-0.0215457
-0.0226519
-0.0232397
0.000135132
-4.35678e-05
-0.000725295
-0.00178895
-0.00312118
-0.00464525
-0.00629747
-0.00802548
-0.00978659
-0.0115485
-0.0132833
-0.0149668
-0.0165754
-0.0180849
-0.019467
-0.0206829
-0.021662
-0.0222359
0.000127822
-0.00013208
-0.000876416
-0.00193516
-0.00320418
-0.00462717
-0.00614961
-0.00772855
-0.0093224
-0.0109073
-0.0124553
-0.0139464
-0.0153609
-0.0166791
-0.0178811
-0.0189463
-0.0198393
-0.0204701
9.42146e-05
-0.00020185
-0.000934764
-0.00190641
-0.00303152
-0.00428304
-0.00560713
-0.00698277
-0.00835347
-0.0097236
-0.0110526
-0.0123314
-0.0135454
-0.0146792
-0.0157087
-0.0166364
-0.0174468
-0.0181188
2.8279e-05
-0.000201147
-0.000877012
-0.0017147
-0.00264731
-0.00369542
-0.004774
-0.00593952
-0.0070455
-0.00820976
-0.00931237
-0.0103873
-0.0114163
-0.0124244
-0.0132873
-0.0140922
-0.0148923
-0.0155753
8.41028e-06
-0.000206037
-0.000724261
-0.00140282
-0.00210413
-0.00295836
-0.00373109
-0.00477163
-0.0055388
-0.00661196
-0.00750002
-0.00845474
-0.00927423
-0.0104481
-0.0112029
-0.0115953
-0.0129281
-0.0137429
6.79518e-06
-0.000164851
-0.000522279
-0.00101929
-0.00143193
-0.0021848
-0.0024944
-0.00374966
-0.00391634
-0.00532754
-0.00593008
-0.00726805
-0.00728472
-0.00879149
-0.0129918
-0.00684349
-0.0127483
-0.0150713
2.47337e-05
-0.000105422
-0.000241078
-0.000527958
-0.000504614
-0.0012585
-0.000491407
-0.00254574
-0.000898319
-0.00338783
-0.00216483
-0.00558702
-0.00579874
0.027562
-0.0700397
0.0372275
0.0108493
-0.0255494
0.000170335
-0.000265152
0.000998646
0.00160652
0.00277584
0.00457038
0.00811298
0.00859713
0.0144428
0.0147307
0.0197668
0.0212636
0.0291641
0.113547
-0.423476
-1.43939
2.21513
-0.0348101
3.67772e-05
-7.97593e-05
-8.38227e-05
-0.00223737
-0.00359644
-0.0102819
-0.0132896
-0.0263138
-0.0294339
-0.0502629
-0.0588492
-0.0626809
-0.0891868
-0.0875457
-0.143665
-0.124818
-0.129975
-0.17228
0.013834
0.023794
0.0558657
0.200976
0.540737
0.987074
1.51175
2.15119
2.81836
3.45891
3.97049
4.30737
4.46765
4.48434
4.39925
4.11936
4.0085
3.40391
3.22452
2.90379
2.52996
2.12447
1.68693
1.21056
0.696347
0.160986
-0.34536
-0.784258
-1.0797
-1.24152
-1.29595
-1.13635
-1.28362
-1.55549
-1.90368
-3.56946
-7.71703
-2.07028
-4.57256
-12.1591
-53.2436
-53.8856
-42.6267
-37.6469
-33.7792
-31.0491
-28.6539
-26.7103
-24.8812
-23.2747
-21.7054
-20.2376
-18.7868
-17.366
-15.9601
-14.5324
-13.1248
-11.6805
-10.2654
-8.80055
-7.36442
-5.89888
-4.47709
-2.99912
-1.56851
-0.160857
1.2222
2.591
3.90206
5.16044
6.33914
7.54037
8.65946
9.62962
10.4401
11.1202
11.7865
12.6927
13.3152
14.0083
14.3105
14.6652
15.6834
17.0031
16.3732
16.2401
16.8415
16.8804
17.0877
17.3644
17.5663
17.7527
17.8874
18.0155
18.1736
18.3999
18.7584
19.2287
19.734
20.1788
20.649
21.3365
22.235
23.058
23.1953
24.297
25.1134
26.1106
27.2689
28.687
29.4494
30.257
30.7437
30.6979
29.6252
24.5366
18.2473
17.4375
17.2736
17.2766
16.7111
16.4405
15.776
15.0324
14.3355
13.6022
12.9776
12.3409
11.679
11.0454
10.4656
9.92064
9.33733
8.79116
8.20582
7.69378
7.15719
6.59566
6.1465
5.72536
5.37736
5.06578
4.83878
4.7074
4.69173
4.75039
4.93086
5.26622
5.59379
5.9719
6.57157
7.17256
7.84886
8.86511
9.95471
11.1836
13.2756
16.3497
19.1409
20.108
18.9101
16.1287
12.4801
8.77411
5.68828
3.47376
1.97846
0.872141
-0.145693
-1.18517
-2.13528
-2.86018
-3.42361
-3.715
-4.4423
-5.28623
-6.28328
-5.96727
-5.74831
-5.26978
0.0837135
-0.00102596
0.248312
0.706752
1.50063
2.508
3.65569
5.2386
6.85551
8.19385
8.94282
9.00122
8.6029
7.88314
7.06228
5.71428
5.21048
4.30589
3.47687
2.67459
1.9576
1.27897
0.635317
0.000990959
-0.65192
-1.31048
-1.90274
-2.40736
-2.61606
-2.71741
-2.46853
-2.74087
-3.3528
-4.63738
-7.43047
-13.6654
-25.8189
-49.7202
-23.783
-10.5883
-38.7361
-32.6938
-31.4942
-32.7324
-31.4812
-30.6929
-29.4412
-29.4014
-28.4227
-28.2891
-27.359
-26.9261
-26.0122
-25.3213
-24.4072
-23.5362
-22.6066
-21.6363
-20.644
-19.5348
-18.4117
-17.2751
-16.2431
-14.465
-12.9356
-11.3196
-9.62056
-7.90059
-6.16089
-4.46551
-2.65464
-0.70334
1.02898
2.57277
4.15611
5.85567
7.64196
8.24288
9.59284
10.6042
11.4517
12.3221
13.0615
13.7144
14.1848
14.4961
14.7456
14.8772
14.9548
14.9658
14.8508
14.5636
14.1007
13.6719
13.1939
12.7607
12.4285
12.2728
12.3006
12.392
12.6796
13.809
14.5005
18.5818
19.0796
21.7066
24.1476
27.1445
30.2176
33.1624
37.0591
40.5631
43.9022
46.852
49.2106
50.6849
51.3333
51.9304
51.9556
51.6
51.134
49.6928
48.3699
46.8873
45.5586
44.0747
42.6397
41.0009
39.401
37.9466
36.4725
35.1345
33.673
32.2861
31.075
29.71
28.7542
27.6157
26.654
25.758
24.7215
23.8838
23.0614
22.286
21.5934
20.964
20.2633
19.6075
18.97
17.8035
17.0298
16.7421
15.7182
14.9734
15.0302
14.3843
12.929
12.4938
13.8968
12.632
8.47927
6.64519
7.03507
7.13676
7.20066
8.30017
10.2945
12.5818
13.7689
13.033
10.6257
7.80089
4.67472
2.59372
-0.146082
-1.54544
-2.85518
-3.21891
-3.35364
-3.4648
0.169904
-0.213465
-0.697786
-1.88949
-2.11144
-1.5367
-0.123142
1.68951
3.24802
4.17241
4.2741
3.93669
3.32365
2.53843
1.47928
1.03816
0.109657
-0.454121
-0.917573
-1.30552
-1.66167
-2.00253
-2.35017
-2.72596
-3.16294
-3.67105
-4.19346
-4.65718
-4.94612
-5.0721
-5.0801
-7.29587
-10.2701
-19.3065
-47.4387
-51.8799
-15.9233
-8.13906
-11.45
-32.5842
-37.2477
-42.5469
-42.6294
-45.6871
-44.6479
-47.391
-46.0997
-45.8371
-43.445
-41.4104
-38.6199
-35.9797
-33.2278
-30.5817
-28.0362
-25.5775
-23.2579
-21.0052
-18.8735
-16.8559
-14.9375
-13.013
-11.0498
-9.60825
-8.02767
-6.52288
-5.02451
-3.47556
-1.86847
-0.290713
1.35473
3.03173
4.67019
6.29838
7.94464
9.67103
11.3384
12.8917
14.4023
15.8729
17.1453
18.3769
19.4713
20.4474
21.2751
21.943
22.4657
22.8469
23.0971
23.2291
23.2404
23.0564
22.3487
21.7152
20.9268
20.0656
19.0512
17.8757
17.2872
17.0055
17.0201
17.8757
18.5785
20.9066
22.4524
25.4083
27.4633
30.0603
33.0519
36.4512
39.3699
42.3579
45.1966
47.8119
50.0988
51.9303
54.7891
56.027
56.5554
56.7248
56.6449
56.1776
55.3677
54.1813
53.1662
51.6998
50.1797
48.2907
46.6052
44.7605
43.0055
41.397
39.7903
38.2423
36.8496
35.4967
34.2873
33.0804
31.9381
30.8613
29.7451
28.676
27.5781
26.4657
25.5688
24.6011
23.4913
22.9461
22.4778
21.691
21.1409
20.6982
19.8756
18.7629
18.2756
18.0499
16.7564
16.3167
16.7422
16.1293
14.4048
13.0161
11.4139
9.80552
8.34214
7.2672
6.79304
6.67806
5.7659
3.81045
1.23354
-1.55696
-4.17687
-5.35042
-6.96747
-8.28719
-7.89881
-7.50225
-5.69512
-5.01746
0.12847
-0.780706
-2.50305
-5.02342
-5.39665
-4.3225
-2.52763
-0.82628
0.195951
0.302365
-0.150927
-0.900343
-1.76612
-2.66564
-3.64764
-4.07175
-4.68611
-5.48258
-5.67972
-5.8036
-5.86816
-5.91187
-6.00707
-6.15725
-6.36549
-6.62017
-6.90854
-7.18641
-7.45555
-7.93072
-10.5452
-15.7358
-34.0521
-65.4383
-39.9357
-2.33751
-6.53722
-14.2028
-31.0455
-46.5383
-51.8271
-56.6454
-57.475
-58.8811
-56.6515
-55.3411
-51.5292
-48.0705
-43.8703
-39.7864
-35.7539
-31.9036
-28.3203
-24.9788
-21.9283
-19.1193
-16.5521
-14.1819
-12.0446
-10.1347
-8.3707
-6.71393
-5.17433
-3.70105
-2.24074
-0.809818
0.651405
2.17026
3.75787
5.41592
7.15589
8.96706
10.836
12.7535
14.699
16.6998
18.6743
20.685
22.7023
24.7343
26.1727
27.6982
29.1071
30.4195
31.5809
32.5639
33.3884
34.0405
34.3798
34.4199
34.543
34.7323
34.2388
33.6059
33.1324
32.8124
32.2532
32.2631
31.884
31.6718
31.3376
31.0207
30.771
30.6791
31.0632
33.0238
34.1099
35.4141
36.8684
37.4421
39.3276
41.3547
43.2669
45.0385
46.6451
48.0288
48.6739
49.2416
49.7332
50.1758
50.6004
50.8889
50.7502
50.3031
49.626
48.523
47.5038
45.7995
44.6242
43.324
41.8404
40.2571
38.8133
37.4422
36.1821
35.0033
33.8886
32.7705
31.7434
30.6608
29.5452
28.5441
27.4982
26.4316
25.4638
24.4742
23.467
22.6359
21.8883
21.1483
20.4623
19.8489
19.2173
18.4695
17.8974
17.3718
16.8833
16.8306
16.8231
16.8267
16.7677
15.5957
14.1608
12.8196
11.0086
8.83106
7.24833
6.04488
3.46361
-0.96462
-5.43095
-7.24232
-8.42096
-12.0448
-12.3884
-11.6991
-10.6272
-9.71464
-7.16629
-6.3861
-0.347919
-1.63135
-4.1752
-5.09743
-4.28217
-2.47814
-0.575525
0.59551
0.709017
-0.130442
-1.55675
-3.18161
-4.81623
-6.33324
-7.8021
-8.42888
-9.25719
-10.2426
-10.4506
-10.4748
-10.4093
-10.3072
-10.2148
-10.14
-10.1471
-10.1979
-10.3034
-10.4482
-10.8132
-13.5791
-20.6239
-43.2936
-59.7377
-39.9634
3.21289
-6.42092
-15.737
-39.4249
-57.3434
-57.4614
-62.3128
-64.4785
-63.5484
-62.1212
-58.6576
-55.2366
-50.6713
-46.1144
-41.3393
-36.6366
-32.1049
-27.7812
-23.7353
-19.9635
-16.4953
-13.3035
-10.3699
-7.70125
-5.25967
-3.03077
-1.00454
0.843541
2.57771
4.26832
5.93635
7.57743
9.23059
10.9629
12.8049
14.7411
16.8144
18.968
21.2357
23.5683
25.7707
28.0277
30.3631
32.7625
35.2121
37.885
39.7122
41.6087
43.2683
45.1368
46.8967
48.4117
49.9678
51.7177
52.8714
53.8265
54.2741
54.6254
54.5085
54.1692
53.5814
52.7857
51.7812
50.667
49.4455
48.3516
48.8142
47.9108
47.2331
46.7277
45.9335
42.0193
42.5274
42.8777
43.2698
44.014
43.9241
43.7927
43.2809
42.3678
41.3354
40.1783
39.1191
38.3399
37.7659
37.3356
37.0826
37.0776
36.9173
36.5854
36.2016
35.4752
34.8006
33.6335
32.6631
31.8251
30.4264
30.1178
29.4097
28.8116
28.2899
27.7959
27.3014
26.7898
26.2673
25.7332
25.147
24.5334
23.8762
23.1571
22.4983
21.8027
21.1011
20.4524
19.8585
19.2849
18.7164
18.2074
17.7252
17.1888
16.6704
16.2067
15.8579
15.6425
15.4662
15.3662
15.2173
14.6507
13.8788
13.0839
11.9589
10.3435
8.5694
6.57759
3.4687
-1.42726
-6.71257
-9.40238
-10.169
-14.0707
-14.7875
-13.6643
-11.9476
-10.3845
-7.80882
-7.45003
-1.77229
-1.62656
-2.20849
-0.845251
2.02785
4.48085
5.44554
5.00224
3.50419
1.31224
-1.27312
-3.95826
-6.58857
-8.81331
-11.0225
-12.1943
-13.7601
-14.5995
-15.0006
-15.1137
-15.072
-14.9325
-14.7039
-14.3333
-14.0138
-13.861
-13.8724
-14.1395
-16.2517
-22.1529
-40.7943
-56.7023
-39.8356
0.300452
-3.01848
-12.3606
-36.4746
-54.6426
-61.8245
-64.9297
-66.6657
-66.4821
-64.1662
-61.3354
-57.4511
-53.318
-48.6149
-43.7801
-38.8309
-33.8974
-29.0701
-24.3916
-19.9072
-15.6502
-11.6331
-7.86503
-4.35286
-1.08776
1.95491
4.7891
7.40558
9.80408
12.046
14.2344
16.39
18.5772
20.8036
23.1131
25.5277
28.0142
30.8404
33.7232
36.6986
39.7558
42.641
45.5421
48.45
51.2882
54.0178
56.6119
59.1677
61.3801
64.2094
66.3951
68.4442
70.2
71.1373
73.6637
75.1148
76.6361
77.011
77.1666
76.9769
76.5052
75.7192
74.6185
73.1778
71.4186
69.343
66.8536
62.3286
61.0887
60.0658
59.4473
59.6029
62.7819
63.853
64.809
65.1794
64.6708
63.3874
61.4476
58.5652
54.7175
50.3577
45.8768
41.5334
37.6243
34.3497
31.6702
29.3752
27.8011
26.4194
24.9894
23.7908
22.6149
21.4797
20.3439
19.2292
18.4041
17.4979
16.6404
16.7759
16.9901
17.2499
17.4783
17.6624
17.8158
17.9305
18.0338
18.0778
18.0461
18.0959
18
17.729
17.4611
17.2552
17.0309
16.8072
16.5682
16.3014
16.048
15.8055
15.525
15.1875
14.8286
14.55
14.375
14.1972
13.987
13.7135
13.2834
12.7561
12.2067
11.5173
10.4687
9.01277
7.08181
4.02955
-0.768552
-6.41308
-10.2022
-11.2409
-13.9975
-16.1091
-14.6987
-12.6155
-10.4435
-8.07408
-7.29679
0.388388
2.06398
4.48148
9.60346
13.0517
13.6875
12.2049
9.38938
5.83989
1.93865
-1.89462
-5.41182
-8.89693
-13.3159
-15.0406
-17.3562
-18.3402
-18.8401
-19.1464
-19.309
-19.3823
-19.3339
-19.1267
-18.5543
-18.0613
-17.7159
-17.5806
-18.745
-22.9725
-36.4873
-52.2687
-36.7439
-15.7182
10.1256
-11.2258
-26.1113
-57.5721
-61.4302
-65.9964
-67.5344
-67.317
-65.7433
-62.9069
-59.613
-55.7096
-51.4891
-46.8944
-42.0952
-37.1498
-32.1364
-27.1185
-22.1487
-17.2701
-12.5196
-7.92662
-3.51883
0.677738
4.64534
8.39611
11.9537
15.3102
18.4882
21.4687
24.3225
27.0642
30.1609
33.4526
36.8468
40.3139
43.6977
47.6497
51.547
55.4864
59.4656
63.2372
66.933
70.6646
74.4232
77.8672
81.6189
84.0691
85.8578
89.8823
91.7786
93.5163
94.7532
95.619
96.0977
96.5132
95.0676
94.8294
94.2433
93.4469
92.4912
91.3544
90.0439
88.3274
86.4236
84.6418
83.351
84.0171
83.2602
83.1402
83.839
85.4569
87.8111
90.6144
93.1278
94.49
93.8001
91.6472
87.8642
82.1839
75.0007
66.6767
58.3753
50.482
43.3301
37.2315
32.4458
28.1719
25.0227
22.5407
19.9331
17.7639
16.0016
14.3887
12.9752
11.6192
10.627
9.71653
8.25014
8.47045
8.70275
8.9883
9.29831
9.63268
9.99817
10.3925
10.8062
11.2145
11.6419
11.9659
12.2592
12.7103
13.0318
13.0544
13.2785
13.4508
13.5853
13.671
13.7296
13.7713
13.7619
13.6528
13.4653
13.2863
13.1455
12.9971
12.7891
12.4517
11.9993
11.5365
11.0791
10.566
9.85646
8.71593
7.00368
4.33397
-0.00551169
-5.73472
-10.5904
-11.8018
-13.3182
-16.6956
-15.3412
-13.1
-10.5894
-8.49734
-6.64935
7.48391
10.7314
18.3381
23.5318
24.0402
21.4025
16.8318
11.2118
5.20532
-0.544823
-5.0306
-13.0669
-16.017
-19.0049
-20.1753
-20.9022
-21.2863
-21.6179
-21.8339
-22.0774
-22.2539
-22.5193
-22.6234
-22.2932
-21.844
-21.4979
-21.8638
-23.9604
-31.0069
-42.0317
-42.127
-29.5487
-9.44386
-10.9626
-21.963
-48.0638
-60.8714
-65.0427
-67.3146
-67.5351
-66.3544
-64.2369
-61.3604
-58.082
-54.3875
-50.3779
-46.0514
-41.4698
-36.6777
-31.7316
-26.6747
-21.5525
-16.4073
-11.2813
-6.21378
-1.24325
3.57808
8.17936
12.5241
16.6187
20.5364
24.4958
28.3064
31.9962
35.4474
39.6552
44.1835
48.9895
53.9768
59.1001
64.2371
69.3061
74.3041
79.9889
84.5752
89.8444
90.9555
98.1841
102.099
105.714
108.901
111.626
114.292
116.328
118.02
119.339
120.355
121.253
120.316
121.338
120.345
118.768
116.182
114.315
112.364
111.703
109.983
107.948
106.008
104.376
103.299
102.962
103.642
105.563
108.885
113.574
119.008
123.849
126.577
126.065
122.716
116.327
106.634
95.0329
81.835
69.0732
57.4026
47.2409
38.8671
32.4768
27.3134
22.9005
19.33
16.6448
14.8482
13.3533
11.9373
10.6461
9.4826
8.43148
7.09464
6.26748
5.69894
5.27143
5.0562
4.99096
5.05135
5.22241
5.49999
5.8593
6.29225
6.79483
7.29275
7.83799
8.37333
8.90098
9.53563
9.95892
10.4312
10.8729
11.2639
11.6074
11.9104
12.1448
12.2572
12.2482
12.1811
12.0936
11.9642
11.7456
11.3928
10.9225
10.4361
9.97852
9.50082
8.93755
8.00927
6.5188
4.23417
0.460063
-5.0168
-10.3367
-12.6826
-13.4227
-16.4159
-15.7698
-13.536
-10.643
-9.21165
-5.97026
16.3588
24.3846
33.5519
34.6442
31.1162
24.7536
16.7058
7.86035
-0.504707
-8.40345
-15.1916
-21.0007
-22.9209
-24.2958
-24.5256
-24.0812
-23.3443
-22.7529
-22.564
-22.521
-22.8323
-23.5778
-24.4377
-24.6719
-24.7746
-24.7323
-25.5511
-28.9868
-36.2906
-44.599
-35.0009
-18.873
-3.09813
-15.5852
-39.4644
-57.4539
-62.8664
-65.8444
-66.8343
-66.3697
-64.8863
-62.7437
-60.0987
-57.1155
-53.8163
-50.2101
-46.2933
-42.0978
-37.6375
-32.9406
-28.0354
-22.9571
-17.7458
-12.4493
-7.11741
-1.80363
3.40465
8.38263
13.0835
17.5024
21.7698
26.3923
31.1088
36.0474
41.2854
46.657
52.2223
58.026
64.0339
70.2607
76.854
83.0709
87.6927
95.5056
101.794
107.797
113.64
119.289
124.361
128.963
133.053
136.591
139.557
141.923
143.704
144.915
145.648
145.676
145.454
143.602
142.901
141.872
141.281
138.655
135.192
130.144
128.227
125.644
123.272
121.436
120.454
120.704
122.473
126.019
131.507
139.084
147.723
155.304
159.212
158.405
152.457
141.805
126.357
108.647
89.8078
71.9385
56.5123
43.6073
35.2408
27.1452
21.2371
17.9055
15.77
14.3131
13.0678
11.9305
10.6354
9.51882
8.4882
7.68531
6.4712
5.74221
4.88532
4.17185
3.6737
3.31368
3.07017
2.94616
2.97016
3.1201
3.39737
3.78926
4.25829
4.81736
5.40016
6.05005
6.70638
7.42533
8.09572
8.74622
9.35715
9.91784
10.4244
10.8486
11.14
11.2818
11.3162
11.2765
11.1527
10.9109
10.5295
10.0348
9.51415
8.99591
8.47299
7.93135
7.1117
5.79653
3.84087
0.600633
-4.43523
-9.94654
-13.0083
-13.6626
-16.0405
-16.0938
-14.0798
-11.4086
-9.84337
-5.53257
23.7481
38.435
43.6446
40.4253
32.7161
22.2346
10.1209
-2.32454
-11.7018
-24.7804
-27.9247
-31.1332
-31.902
-30.7179
-28.3602
-25.5869
-22.9315
-21.7816
-20.6187
-20.6039
-21.5317
-22.9723
-24.5704
-26.2661
-27.601
-28.8039
-30.5627
-33.6164
-38.0047
-37.7732
-29.068
-16.1422
-16.5346
-25.3402
-48.9433
-59.7259
-63.2172
-65.0458
-65.4121
-64.7451
-63.3573
-61.4942
-59.2774
-56.794
-54.0367
-50.9873
-47.6468
-44.0068
-40.0604
-35.8119
-31.2739
-26.4699
-21.429
-16.1949
-10.8108
-5.39561
-0.0234651
5.14987
10.2403
15.339
20.5061
25.7249
31.0885
36.7036
42.5528
48.5989
54.8265
61.2965
68.0095
75.3027
83.3181
88.2615
96.9525
105.254
113.146
120.903
128.492
135.746
142.559
148.825
154.436
159.301
163.351
166.548
168.877
170.347
170.999
170.821
169.854
168.115
165.663
163.462
157.71
154.314
151.105
147.183
143.786
140.332
137.482
135.549
134.888
136.015
139.343
145.147
153.487
164.62
176.956
187.118
191.279
188.508
177.785
160.212
137.247
110.925
86.2943
63.618
47.2861
33.6979
24.3058
19.6519
16.5407
14.9892
13.6372
12.4713
11.7545
11.2403
9.76104
8.47811
7.54766
7.20467
6.16731
5.52424
4.40523
3.81502
3.25301
2.7544
2.33783
2.01787
1.84249
1.80766
1.91529
2.16465
2.53328
3.02298
3.57729
4.23347
5.0342
5.74825
6.51769
7.29313
8.04404
8.7511
9.40038
9.95841
10.3742
10.6252
10.7351
10.7251
10.5892
10.3078
9.87946
9.34007
8.75796
8.1506
7.53571
6.94045
6.14658
4.95684
3.26873
0.490815
-4.04441
-9.46928
-13.0493
-13.8669
-15.4711
-16.6
-14.8776
-12.293
-10.7611
-6.53528
28.9915
49.0226
49.6083
41.795
29.3453
14.0963
-2.24248
-15.5252
-29.8821
-36.8279
-41.9643
-42.0967
-39.6087
-34.5903
-28.9015
-23.8592
-19.9667
-18.1781
-16.484
-16.6887
-18.2621
-20.7923
-23.5594
-26.0002
-28.2193
-30.293
-32.2291
-34.8699
-36.8871
-31.9271
-26.0868
-12.1419
-20.4548
-35.8106
-52.5356
-59.5808
-62.2027
-63.3716
-63.5194
-62.9568
-61.9025
-60.5158
-58.8797
-57.0276
-54.9341
-52.5862
-49.9596
-47.0238
-43.7522
-40.1315
-36.1543
-31.8231
-27.1126
-22.069
-16.7409
-11.4123
-5.98477
-0.680502
4.68325
10.0961
15.6016
21.2063
26.9641
32.9619
39.2162
45.7009
52.4168
59.4282
66.7325
74.5344
83.9479
89.5583
99.6634
109.203
118.657
128.138
137.543
146.71
155.472
163.654
171.08
177.595
183.067
187.408
190.568
192.556
193.449
193.07
191.53
188.954
185.46
181.158
176.288
171.217
166.606
159.305
155.192
151.149
148.042
146.379
146.553
149.151
154.814
163.823
176.118
191.547
207.79
219.289
221.661
213.211
194.617
166.212
133.843
99.5332
70.3654
47.4609
31.2932
22.1122
17.3365
15.4703
13.4522
12.9472
12.2261
11.3613
10.7216
10.1072
9.40705
8.64553
7.82627
6.98468
6.18713
4.86592
4.46881
3.80794
2.94782
2.52786
2.07387
1.67919
1.40113
1.25032
1.23977
1.38307
1.66735
2.06495
2.65589
3.34103
3.96253
4.76678
5.60386
6.45315
7.2899
8.09111
8.83395
9.47877
9.97512
10.2962
10.4487
10.4446
10.2787
9.94381
9.45011
8.83411
8.15494
7.43212
6.70326
6.00813
5.18153
4.0733
2.59764
0.206028
-3.83107
-9.00287
-12.9586
-13.9233
-14.9506
-17.0068
-15.7859
-13.2834
-11.8807
-8.11999
32.887
56.5123
52.9867
40.0829
22.522
2.57004
-17.0958
-35.1961
-47.1693
-53.4819
-52.4851
-46.8073
-38.0642
-30.4618
-23.915
-19.0289
-15.9686
-13.6827
-12.3792
-12.7005
-14.4519
-17.3798
-20.9108
-24.3046
-27.0019
-29.1381
-30.7062
-31.2673
-31.9241
-28.271
-20.5576
-17.0062
-23.7503
-41.6478
-53.2868
-58.2954
-60.3897
-61.3015
-61.5079
-61.241
-60.6272
-59.7974
-58.8129
-57.6692
-56.3293
-54.7703
-52.9509
-50.8185
-48.3266
-45.4455
-42.1095
-38.284
-33.9133
-29.1832
-24.1453
-19.3248
-14.2174
-8.92113
-3.50966
2.04011
7.75169
13.6312
19.7051
26.0328
32.6485
39.5534
46.7552
54.303
62.3044
70.6099
80.3504
87.9469
98.6285
109.34
120.168
131.145
142.143
152.979
163.442
173.31
182.354
190.362
197.142
202.545
206.483
208.966
210.331
209.621
207.537
204.153
199.64
194.147
187.824
180.523
171.208
167.019
162.055
157.692
154.809
154.165
156.105
161.152
170.277
183.624
200.964
221.294
240.466
250.566
247.102
227.67
195.677
155.642
112.565
76.2204
45.6973
27.7928
19.0547
15.6316
13.2274
12.7205
11.3327
11.0127
10.7989
10.4762
10.0386
9.51211
8.90874
8.23792
7.50955
6.73772
5.93558
5.0923
4.02108
3.763
2.88243
2.34622
1.93867
1.53901
1.23009
1.03777
0.981829
1.07879
1.32282
1.69733
2.18248
2.79661
3.53058
4.34754
5.21583
6.10988
7.00249
7.86652
8.67125
9.37187
9.91768
10.2776
10.4457
10.4249
10.2111
9.80487
9.22273
8.50123
7.69552
6.83605
5.97181
5.14726
4.2506
3.18773
1.87624
-0.200302
-3.77032
-8.57375
-12.7904
-14.2142
-14.8029
-17.0175
-16.7568
-14.9711
-12.9052
-9.69068
37.5522
62.1814
54.7043
35.9318
14.8019
-9.6688
-32.5917
-49.9298
-58.8663
-58.4094
-52.675
-42.9415
-33.186
-25.3718
-20.2118
-16.1369
-13.0814
-10.4199
-9.05994
-9.07213
-10.4704
-13.1501
-16.9263
-20.6441
-23.9228
-26.3514
-27.9439
-29.2108
-28.7981
-23.9511
-17.1046
-20.4744
-27.1478
-43.6217
-52.3584
-56.3041
-58.1307
-58.9978
-59.2895
-59.1969
-59.2108
-59.1539
-58.9884
-58.6768
-58.1833
-57.4784
-56.517
-55.2123
-53.4878
-51.2411
-48.4068
-44.9366
-40.7713
-37.0835
-33.0069
-28.6087
-23.8215
-18.6996
-13.2882
-7.65409
-1.77407
4.37029
10.799
17.5444
24.6338
32.0809
39.8977
48.1185
56.7979
65.9542
75.7201
85.3589
96.2762
108.05
119.984
132.105
144.274
156.285
167.9
178.87
188.941
197.868
205.422
211.405
215.678
218.124
218.28
217.303
214.433
210.097
204.585
198.066
191.115
183.512
174.542
169.707
164.207
160.048
158.17
159.52
164.484
173.445
187.678
206.816
229.691
255.025
273.627
277.783
259.024
224.364
175.858
126.42
76.0354
41.2458
24.023
16.7481
12.2471
11.272
10.8047
10.0366
9.96121
9.99919
9.92414
9.69501
9.3315
8.86286
8.31582
7.70339
7.04398
6.34399
5.60526
4.85508
4.06549
3.37892
2.50809
2.26068
1.72815
1.34773
1.11921
0.96331
0.870516
0.941393
1.16885
1.55836
2.07805
2.71532
3.46562
4.30449
5.2041
6.13724
7.07602
7.99005
8.84186
9.58213
10.1589
10.5365
10.6998
10.6441
10.3658
9.87008
9.17713
8.32486
7.36833
6.35062
5.33118
4.35769
3.36872
2.32092
1.12981
-0.690311
-3.82762
-8.19756
-12.3652
-14.2231
-14.6739
-16.8635
-17.5959
-16.4196
-13.9953
-11.5434
42.0457
67.1369
54.717
31.5811
9.64807
-18.9969
-43.3132
-59.3374
-65.1459
-61.4125
-51.3599
-39.7103
-29.4073
-20.5011
-15.0466
-12.4453
-9.64895
-7.76815
-6.96877
-7.28263
-8.75084
-11.1295
-13.5448
-16.6486
-19.5699
-22.045
-24.3806
-25.5692
-23.873
-21.3889
-17.4757
-21.9189
-30.9023
-43.4898
-50.5526
-54.0178
-55.8076
-56.8805
-58.4
-58.3063
-58.6537
-58.9246
-59.1049
-59.1629
-59.0572
-58.7749
-58.2347
-57.3667
-56.0386
-54.0239
-51.5734
-49.4093
-47.8119
-45.2689
-42.0747
-38.2913
-33.9251
-29.0092
-23.4107
-17.6895
-11.6442
-5.2131
1.62401
8.88104
16.5711
24.7038
33.2896
42.3525
51.9303
62.0289
72.4096
83.3323
93.8126
107.506
120.426
133.364
146.203
158.695
170.597
181.643
191.605
200.267
207.43
212.913
216.573
218.354
218.342
218.294
215.127
210.191
204.076
197.008
189.132
181.102
173.426
166.737
161.746
159.129
159.739
164.618
174.089
188.579
209.421
235.51
263.576
291.628
304.733
290.732
248.201
193.12
133.352
70.7143
38.2443
21.0351
12.382
10.9635
9.5169
7.43086
8.28847
8.86197
9.15422
9.23218
9.14104
8.90985
8.56456
8.12747
7.62177
7.06014
6.45584
5.81733
5.14661
4.46396
3.78328
3.07778
2.3756
1.79801
1.34954
0.963908
0.821112
0.822959
0.776409
0.86127
1.12734
1.52165
2.10066
2.7991
3.60333
4.49167
5.43981
6.42249
7.41312
8.37909
9.27702
10.053
10.6528
11.0363
11.1808
11.0762
10.7185
10.1158
9.29125
8.28559
7.15674
5.96133
4.76892
3.63345
2.53902
1.48028
0.370549
-1.23694
-3.97098
-7.87329
-11.8381
-13.9086
-14.564
-16.2299
-18.4759
-18.1281
-15.5749
-14.117
44.5261
70.9065
55.4483
29.818
7.24346
-23.4911
-47.2051
-60.6802
-63.31
-57.0606
-45.6033
-33.5372
-23.9409
-16.0875
-11.323
-8.74098
-6.71435
-4.88522
-4.60058
-5.44804
-7.1863
-9.70057
-12.8088
-15.8209
-18.4945
-20.5253
-21.2297
-21.9804
-21.2753
-20.3982
-19.7856
-23.354
-34.3629
-43.1128
-48.6614
-51.8181
-53.7041
-55.061
-57.0738
-56.8872
-57.7309
-58.5746
-59.3204
-59.9383
-60.2516
-60.4078
-60.0893
-59.4801
-58.9997
-57.8153
-56.2638
-54.7234
-52.5838
-50.3405
-47.6045
-44.2464
-40.2965
-35.9716
-32.0801
-26.8858
-20.8741
-14.2155
-6.97576
0.819713
9.16339
18.0551
27.5017
37.5341
48.2281
59.6801
71.8162
83.4261
93.0797
108.317
121.606
134.665
147.466
159.734
171.249
181.778
191.105
199.065
205.511
210.289
213.27
214.388
213.718
211.415
207.148
201.338
194.515
186.959
178.982
171.168
164.179
158.829
156.134
156.878
161.965
172.322
188.079
209.357
237.773
271.494
301.655
329.963
326.188
272.388
207.565
129.998
64.2506
33.4445
18.3417
9.67342
7.94586
6.12273
6.36205
7.07077
7.73936
8.19479
8.41657
8.44534
8.31802
8.07064
7.73304
7.32214
6.85363
6.33957
5.78271
5.19648
4.59022
3.95931
3.32549
2.68687
2.04466
1.4261
0.905481
0.528557
0.308685
0.331844
0.368708
0.584623
1.0322
1.43432
2.10439
2.8799
3.79853
4.78554
5.81479
6.87042
7.93101
8.96297
9.91728
10.7349
11.3582
11.7428
11.8602
11.6957
11.2452
10.5189
9.54317
8.36318
7.04259
5.65193
4.27148
2.96575
1.75709
0.665758
-0.394833
-1.82221
-4.18058
-7.61057
-11.3335
-13.6342
-14.2987
-15.5789
-19.0061
-19.7049
-18.0609
-16.0515
45.7189
77.5711
60.6586
31.6012
9.29257
-21.7291
-43.2998
-54.5174
-56.2765
-51.3622
-41.8381
-30.9982
-21.9172
-14.8742
-9.42301
-6.42528
-5.02892
-3.44697
-3.81862
-5.07469
-7.17294
-9.83857
-12.849
-15.4836
-17.6872
-19.33
-20.5806
-21.3268
-21.1156
-20.7986
-21.1404
-25.9218
-34.9652
-42.1431
-47.1472
-50.4324
-52.4433
-53.9435
-55.2611
-55.9902
-56.6078
-57.2735
-58.4923
-59.6302
-60.7552
-61.5208
-61.9079
-62.0234
-62.1198
-61.8477
-61.2706
-60.4028
-58.9011
-57.161
-54.9532
-52.0175
-48.0851
-43.8752
-38.7278
-33.2566
-27.1813
-20.4551
-13.0766
-5.04604
3.64556
13.015
23.084
33.8966
45.5696
58.4033
71.7069
83.6442
92.1077
108.566
121.943
134.829
147.119
158.574
168.964
178.094
185.789
191.962
196.596
199.6
200.931
200.468
198.408
194.984
190.067
183.863
176.835
169.462
162.236
155.908
151.225
148.982
150.58
156.541
168.045
185.726
210.289
238.677
280.4
320.597
352.267
348.833
294.536
201.483
112.837
58.2764
28.9469
15.2499
6.65683
6.76304
2.943
4.44812
5.83762
6.74694
7.28069
7.55164
7.6597
7.63308
7.46522
7.193
6.85545
6.46979
6.03554
5.56019
5.05287
4.50878
3.94436
3.36752
2.77775
2.18418
1.59163
1.00616
0.461543
-0.023293
-0.332866
-0.352146
-0.323203
0.086873
0.55453
1.03382
1.9684
2.83117
3.90665
5.06587
6.23601
7.40446
8.56617
9.69003
10.7212
11.5946
12.2485
12.6345
12.7193
12.4851
11.9283
11.0612
9.91425
8.53873
7.00702
5.40408
3.82245
2.34057
1.01079
-0.130494
-1.16513
-2.43842
-4.44842
-7.41311
-10.8221
-13.2301
-13.9432
-15.1828
-19.0236
-21.064
-20.3091
-18.4405
45.0481
80.3392
65.4198
39.5894
18.9949
-7.93738
-26.1494
-37.2298
-41.5559
-41.9651
-37.6835
-30.1328
-23.2504
-17.3449
-12.3234
-8.71235
-6.78989
-6.04926
-6.03159
-7.26073
-9.15282
-11.4045
-13.6674
-15.7198
-17.3821
-18.803
-20.16
-21.1242
-21.7708
-22.2718
-23.8539
-29.004
-36.2751
-42.2836
-46.5872
-49.2933
-50.9293
-52.291
-53.6648
-54.1126
-54.7504
-55.8815
-57.2974
-58.7432
-60.0931
-61.1958
-62.0263
-62.6368
-63.0651
-63.1903
-63.0069
-62.5301
-61.7129
-60.5734
-59.0035
-56.9251
-54.5059
-50.8621
-46.056
-40.5293
-34.2931
-27.3028
-19.5207
-10.9181
-1.46893
8.85106
20.0525
32.1424
45.2078
59.0463
73.5324
81.6963
93.2097
109.974
122.301
134.216
145.138
154.832
163.136
169.973
175.273
178.981
181.27
182.094
181.524
179.533
176.131
171.665
166.274
160.176
153.86
147.889
142.744
139.422
138.625
141.37
149.377
163.125
182.857
213.799
249.279
289.299
334.078
364.348
356.445
299.963
179.712
91.4198
49.3128
20.8359
9.69274
6.29637
2.09293
2.11249
3.61854
4.85632
5.77775
6.39428
6.76226
6.88814
6.90271
6.84338
6.63794
6.33229
5.9903
5.62123
5.22237
4.77794
4.30087
3.79756
3.26766
2.71993
2.16131
1.59831
1.03902
0.49146
-0.0297763
-0.505728
-0.927982
-1.18191
-1.15187
-0.882057
-0.34008
0.759956
1.40493
2.44758
3.81203
5.20888
6.60331
7.94416
9.25023
10.5024
11.6397
12.5892
13.2856
13.6768
13.7262
13.4144
12.739
11.7153
10.3792
8.78977
7.03058
5.20208
3.41072
1.75036
0.295131
-0.908921
-1.93474
-3.07709
-4.77515
-7.29394
-10.348
-12.8209
-13.56
-14.7621
-18.6974
-22.1812
-22.4458
-20.9005
41.3556
76.4853
70.2899
45.9545
25.8711
13.8445
-4.10682
-14.9269
-21.5372
-26.0529
-27.2037
-25.5564
-22.3718
-19.5727
-16.4799
-13.7532
-11.7219
-10.5432
-10.1858
-10.6048
-11.6151
-13.0214
-14.4985
-16.12
-17.0392
-18.7168
-20.2382
-21.866
-23.6046
-25.3106
-28.1451
-33.0644
-38.4617
-43.2846
-46.8512
-49.2314
-50.2866
-51.4067
-52.6037
-53.6489
-54.2865
-54.9054
-55.9384
-57.2167
-58.6399
-60.005
-61.1502
-62.0381
-62.6953
-63.0918
-63.2162
-63.0832
-62.7162
-62.0743
-60.997
-59.3659
-57.0409
-53.8254
-49.6359
-44.5313
-38.529
-31.6087
-23.7375
-14.8854
-5.03168
5.83371
17.6911
30.4953
44.4927
60.2891
75.4489
81.1575
95.7574
108.588
120.006
130.121
138.861
146.154
151.925
156.212
159.104
160.537
160.713
159.763
157.745
154.653
150.637
146.012
141.087
136.037
131.484
127.908
126.038
127.098
132.243
141.46
161.455
186.308
216.235
253.714
293.835
333.397
366.916
355.625
297.785
166.404
81.8536
41.49
17.708
7.61534
2.14674
0.892391
0.979167
2.47988
4.01034
5.11945
5.67754
6.02794
6.2312
6.22501
6.16485
6.08553
5.89814
5.55343
5.20527
4.84799
4.46371
4.05057
3.59814
3.11164
2.59875
2.06642
1.52304
0.975127
0.43161
-0.0991372
-0.597634
-1.05209
-1.44627
-1.73612
-1.96002
-1.76207
-1.38915
-0.569919
1.08804
2.01384
3.32491
5.19405
6.83595
8.41755
9.91436
11.3346
12.6112
13.6608
14.4145
14.8182
14.8334
14.4399
13.6386
12.4478
10.9109
9.0957
7.09876
5.0372
3.03301
1.19508
-0.387507
-1.66287
-2.69296
-3.72756
-5.15168
-7.2632
-9.94408
-12.4367
-13.4251
-14.3841
-17.5043
-23.4367
-24.3807
-23.3625
42.3764
70.15
67.6024
53.8142
37.9942
26.0222
14.2606
5.35535
0.538056
-5.4853
-8.96951
-11.5442
-12.487
-13.1094
-13.4399
-13.2724
-12.8062
-12.481
-12.4672
-12.4823
-12.881
-13.6013
-14.6183
-16.0658
-17.6106
-19.9126
-22.3133
-24.2995
-28.0004
-31.2143
-35.0891
-39.5217
-43.1062
-46.8181
-49.8376
-52.5285
-53.1696
-53.2908
-54.1597
-54.9593
-55.1136
-55.6204
-56.4114
-57.3575
-58.3153
-59.1612
-59.8549
-60.6179
-61.3261
-61.9384
-62.3702
-62.5603
-62.5528
-62.2959
-61.6232
-60.336
-58.3159
-55.4881
-51.7557
-47.0507
-41.3177
-34.5061
-26.5768
-17.5111
-7.32636
3.93046
16.167
29.2025
43.4757
61.4292
69.5163
78.2869
93.7117
103.511
112.68
120.521
126.899
131.858
135.424
137.653
138.716
138.607
137.477
135.504
132.84
129.573
125.874
122.018
118.26
115.125
113.337
113.672
116.174
126.116
139.863
159.154
185.851
216.709
251.896
292.147
330.721
357.446
349.953
278.452
140.395
68.6605
33.3724
16.0795
3.36029
1.22637
-1.47877
-0.347095
1.87459
3.48721
4.45616
5.25787
5.42556
5.6095
5.69458
5.57437
5.47873
5.26499
5.20188
4.85701
4.4925
4.14875
3.78291
3.38017
2.93658
2.45488
1.94541
1.41403
0.870692
0.323355
-0.219347
-0.748386
-1.24465
-1.6898
-2.056
-2.33742
-2.49382
-2.58223
-2.31833
-1.67565
-0.504285
1.73309
2.84003
4.73143
6.87116
8.79119
10.5299
12.1577
13.6089
14.7845
15.6116
16.0367
16.0204
15.5425
14.6096
13.2441
11.4956
9.44619
7.20376
4.90302
2.68423
0.670188
-1.04073
-2.39328
-3.43812
-4.38674
-5.57592
-7.31991
-9.6444
-11.9914
-13.1058
-13.9396
-16.6632
-23.9357
-25.9665
-25.6459
38.1744
63.2332
62.9826
54.4266
43.7148
33.7624
25.7732
20.1016
15.9941
11.5552
7.97708
4.24967
0.542637
-2.44836
-4.89126
-6.57035
-7.15512
-7.1565
-7.43646
-7.42208
-8.10009
-9.5712
-11.8952
-14.957
-18.8227
-23.3781
-28.2021
-33.4626
-38.79
-43.849
-48.5578
-52.5393
-56.0342
-58.9482
-60.4943
-61.2939
-61.4308
-61.6523
-61.8976
-62.2857
-60.8693
-60.578
-60.4068
-60.4223
-60.5082
-60.4929
-60.2993
-60.2795
-60.3683
-60.6672
-61.0527
-61.2814
-61.3019
-61.0737
-60.4958
-59.4666
-57.7875
-55.3588
-52.0381
-47.7047
-42.2546
-35.617
-27.767
-18.734
-8.59201
2.52642
14.4523
26.8529
40.3826
56.6515
64.5459
73.6877
84.1999
92.9473
100.304
106.297
110.898
114.206
116.335
117.353
117.411
116.616
115.052
112.881
110.24
107.403
104.662
102.453
100.854
100.564
104.674
110.898
120.393
136.004
156.857
183.068
213.577
248.493
284.412
320.48
346.791
337.438
262.55
143.947
71.8444
29.6641
12.902
0.614817
0.593214
-3.19989
-0.859909
1.34799
2.73958
4.13232
4.60948
4.86885
5.1443
5.23555
5.10164
5.04543
4.77751
4.65482
4.48805
4.21042
3.85669
3.52649
3.16426
2.76153
2.31422
1.8246
1.30541
0.762404
0.20683
-0.351614
-0.906058
-1.44527
-1.95293
-2.40405
-2.76709
-3.03897
-3.17543
-3.13366
-3.0398
-2.79809
-1.71716
0.212664
2.69711
3.98681
6.64191
9.02777
11.0837
12.9563
14.6157
15.9433
16.8598
17.3152
17.2717
16.7083
15.6349
14.1067
12.1239
9.83449
7.34334
4.79896
2.36268
0.174789
-1.6645
-3.09869
-4.16803
-5.05155
-6.04588
-7.46817
-9.44855
-11.5967
-12.7528
-13.4819
-15.9956
-23.944
-27.1398
-27.6037
31.9522
58.4753
60.2889
55.3796
48.3528
41.1848
34.795
30.0771
26.6875
22.8204
18.3684
13.1531
7.5294
2.079
-2.47016
-5.65506
-7.09746
-6.93849
-5.39069
-2.54716
-0.524513
1.26314
1.13713
-0.996472
-5.49086
-12.3374
-21.0469
-30.9969
-41.2848
-51.1083
-59.7864
-66.8733
-72.3586
-76.3125
-78.69
-79.4379
-78.9245
-77.903
-76.5633
-75.6919
-74.4221
-72.7858
-71.1916
-69.5746
-67.5594
-65.8354
-63.1157
-62.0824
-61.3428
-60.6768
-60.0283
-59.3512
-58.4588
-57.4964
-56.6828
-55.615
-54.0992
-51.9632
-49.0004
-45.0563
-40.0305
-33.8705
-26.5723
-18.1972
-8.86974
1.24756
11.974
22.9607
34.7221
49.663
55.5015
63.4323
73.1184
80.2636
86.2509
91.0088
94.5382
96.9059
98.2313
98.638
98.2754
97.2839
95.7803
93.9309
91.8816
90.083
90.1392
90.8302
92.6012
96.5583
104.534
115.9
131.554
152.609
178.397
207.526
239.829
275.977
307.677
330.192
320.633
233.105
128.889
53.4501
18.281
8.95983
0.729884
-2.48451
-3.33793
-1.29608
0.678979
2.64802
3.20741
3.65846
4.71387
4.80331
4.77056
4.6859
4.56858
4.37417
4.31018
4.005
3.93653
3.52731
3.28314
2.94782
2.58072
2.17434
1.71858
1.21432
0.677272
0.114051
-0.464841
-1.04552
-1.62363
-2.18631
-2.71519
-3.18528
-3.55624
-3.82732
-3.98308
-3.90574
-3.60233
-3.40615
-3.05604
-1.33915
1.86465
3.47958
5.66028
9.25508
11.5744
13.7251
15.6209
17.1237
18.1465
18.6404
18.5721
17.9442
16.6952
14.9702
12.702
10.2028
7.51661
4.73437
2.06943
-0.288618
-2.25584
-3.77543
-4.8794
-5.71915
-6.55783
-7.70816
-9.36498
-11.2746
-12.3911
-13.0386
-15.4633
-23.6448
-27.8488
-29.1237
28.293
53.1206
57.1189
55.3945
51.4636
46.7108
42.2761
38.1184
33.8057
30.0417
24.7598
18.0793
10.4407
2.34315
-5.37635
-11.8572
-16.2851
-18.2053
-17.4057
-14.0818
-8.90587
-2.08934
2.91739
7.37667
9.02571
7.15559
1.51519
-7.51422
-19.3639
-32.8904
-46.8113
-59.9021
-71.3009
-80.4781
-87.1112
-91.0592
-92.5894
-92.4472
-91.1214
-89.3476
-87.0374
-83.3835
-81.7792
-77.6726
-75.1836
-71.7983
-69.0437
-66.2887
-64.0653
-62.2095
-60.6826
-59.0264
-56.9828
-54.2852
-51.3199
-49.5514
-47.5755
-45.2671
-42.4005
-38.8102
-34.3845
-29.0601
-22.8192
-15.6932
-7.77649
0.789132
9.8623
19.1733
28.9416
41.6536
47.083
53.2295
61.7531
67.8036
72.6768
76.497
79.2966
81.1388
82.1393
82.4388
82.1934
81.5702
80.7159
79.8574
79.1929
79.3056
81.3037
84.668
89.999
98.281
110.22
126.246
146.77
171.345
199.291
230.341
261.616
293.058
312.468
303.045
226.842
128.303
46.9915
19.0292
5.27193
0.532394
-4.02313
-3.96475
-1.90925
0.191384
2.15259
2.76271
3.62025
4.22104
4.35702
4.36054
4.3066
4.18427
4.06583
3.87825
3.74102
3.43892
3.29208
2.99395
2.82992
2.41449
2.0327
1.61882
1.14961
0.623643
0.059176
-0.534015
-1.14917
-1.76508
-2.37772
-2.97866
-3.53892
-4.03834
-4.42959
-4.68997
-4.86533
-4.84773
-4.42315
-3.90697
-3.75512
-2.6868
0.0516183
3.41021
5.07295
8.69168
11.9301
14.4585
16.6161
18.313
19.4591
19.9984
19.938
19.1349
17.6423
15.7478
13.4165
10.6949
7.74163
4.73458
1.87211
-0.70734
-2.81187
-4.41819
-5.56723
-6.38614
-7.1075
-8.03441
-9.39936
-11.0443
-12.0396
-12.6441
-15.0345
-23.1613
-28.1165
-30.1525
22.6497
43.2475
52.5255
54.1442
53.0644
50.6288
47.5149
43.9771
40.0794
35.2408
29.7798
22.7785
14.3111
4.68261
-5.43765
-15.1372
-23.521
-29.775
-33.1556
-33.222
-30.1002
-24.0969
-15.4616
-6.78702
1.6403
8.22151
11.5553
11.3023
6.49994
-2.47713
-14.7906
-29.0836
-43.9482
-58.0338
-70.2209
-79.7
-86.2037
-90.0468
-91.5979
-91.4178
-89.9689
-86.9882
-84.0376
-80.6353
-77.127
-72.1687
-70.0303
-66.2823
-62.9883
-60.0328
-57.6761
-55.383
-53.0545
-49.6321
-46.6349
-44.2238
-41.7464
-39.1587
-36.2286
-32.8354
-28.8529
-24.2153
-18.895
-12.9015
-6.29341
0.823588
8.36914
16.0849
23.9952
34.5388
41.8599
44.7334
51.4876
56.5506
60.6085
63.7227
65.9926
67.5057
68.3786
68.7657
68.8302
68.7704
68.7807
69.1415
70.1978
72.485
76.6708
82.8061
91.602
103.751
119.507
139.485
162.577
188.944
218.053
248.671
275.495
291.855
279.714
205.283
103.628
42.4393
16.5794
2.5068
-0.720546
-4.50428
-4.40938
-2.37277
-0.20571
1.6337
2.25259
3.33842
3.88115
4.02314
4.03142
3.97465
3.87984
3.76711
3.59558
3.46765
3.20912
3.11816
2.70917
2.5326
2.44986
1.84704
1.51306
1.09696
0.607079
0.050886
-0.553229
-1.18836
-1.85384
-2.52095
-3.17902
-3.83618
-4.44278
-4.97457
-5.40399
-5.65686
-5.80496
-5.86827
-5.49225
-4.66429
-4.16738
-3.96828
-1.51537
2.67779
4.6746
7.41768
12.379
15.1616
17.5944
19.5009
20.7859
21.4006
21.1664
20.2117
18.8015
16.7828
14.2272
11.2725
8.06263
4.78987
1.67572
-1.04106
-3.27135
-5.01963
-6.2238
-7.04594
-7.69037
-8.44084
-9.54325
-10.9038
-11.6985
-12.312
-14.6802
-22.6204
-27.9886
-30.6722
18.1997
34.5216
46.2638
51.2522
52.9308
52.5059
50.5896
47.673
44.0025
39.4688
33.9932
27.7759
20.0666
10.877
0.435129
-10.5711
-21.4234
-31.3071
-39.4413
-44.74
-46.9076
-45.4758
-40.5357
-32.805
-23.0283
-12.0547
-2.39363
6.69368
12.0006
13.1387
9.61306
2.06071
-8.75761
-21.4667
-34.606
-46.7779
-57.0387
-65.0061
-70.5324
-73.7543
-75.0459
-74.6265
-73.0701
-70.676
-67.6637
-63.5304
-60.1966
-56.902
-52.9489
-51.2336
-48.8249
-45.8837
-43.3731
-41.3446
-38.9078
-35.7501
-33.2476
-30.9175
-28.3647
-25.5896
-22.3354
-18.562
-14.2531
-9.40903
-4.06762
1.67
7.80175
14.021
20.2988
28.9011
34.9327
37.1903
42.7778
46.791
50.073
52.5834
54.4274
55.7095
56.5529
57.1403
57.644
58.2963
59.3628
61.1084
64.0261
68.5246
75.193
84.0821
96.1312
111.543
130.704
152.968
177.328
204.799
233.041
257.962
272.06
258.56
183.146
87.3263
40.6414
11.3919
2.01547
-1.91129
-5.55298
-5.16906
-2.92957
-0.637778
1.32955
1.62785
3.16457
3.56568
3.69447
3.71918
3.69266
3.62527
3.51497
3.3916
3.2086
3.05022
2.8409
2.63157
2.45759
2.09571
1.90062
1.38974
1.07335
0.612558
0.0865976
-0.507497
-1.16411
-1.85573
-2.58623
-3.32489
-4.04173
-4.77234
-5.45074
-6.01522
-6.49148
-6.77005
-6.84897
-6.92784
-6.70984
-5.74088
-4.7246
-4.54788
-3.3635
1.12048
4.64276
6.96359
11.8203
15.6922
18.5241
20.6729
22.0946
22.6799
22.3624
21.5369
19.9997
17.8141
15.0662
11.8859
8.44101
4.93194
1.57219
-1.38717
-3.74737
-5.51323
-6.83561
-7.69245
-8.2981
-8.9173
-9.79491
-10.8592
-11.3837
-12.0728
-14.4284
-22.0834
-27.5163
-30.6937
12.0257
19.7269
32.2286
42.4874
47.7557
48.7769
48.8792
46.7952
44.0255
40.3896
36.3964
31.4684
25.5123
18.2477
9.49679
-0.509173
-11.4578
-22.7371
-33.4718
-43.1945
-51.2205
-56.2957
-57.867
-55.569
-49.4101
-39.6359
-26.2997
-15.0136
-1.26534
8.36486
14.1217
16.3176
14.2042
8.59396
0.431239
-8.90342
-18.2416
-26.8097
-34.0174
-39.5294
-43.3023
-45.4453
-46.1702
-45.7248
-44.3302
-41.8849
-39.3534
-36.9577
-34.2982
-32.483
-30.8929
-29.0041
-26.9405
-25.9616
-24.3602
-23.6358
-22.2377
-19.8751
-17.5186
-16.0981
-13.927
-11.2802
-8.1949
-4.66161
-0.689166
3.59683
8.32406
13.0407
17.9924
24.3889
27.2696
30.9566
35.4644
38.4565
40.9531
42.9166
44.4065
45.5358
46.4292
47.3133
48.3616
49.8258
52.0856
55.2841
60.1369
66.738
76.0435
87.5348
102.792
120.603
141.943
165.634
190.001
216.563
238.781
251.19
236.274
167.054
82.594
40.4075
8.71264
1.45908
-4.32891
-5.80914
-5.71171
-3.53185
-1.05479
0.739145
1.3415
2.82001
3.22611
3.37431
3.43778
3.4437
3.40582
3.3219
3.20484
3.05233
2.87569
2.675
2.50835
2.19699
2.06181
1.62116
1.43553
0.953611
0.755802
0.160903
-0.416311
-1.05258
-1.77369
-2.5392
-3.34945
-4.18302
-4.97672
-5.79325
-6.57787
-7.1856
-7.69824
-8.04532
-8.06312
-8.06022
-7.99514
-7.07512
-5.59739
-5.02799
-4.46665
-0.607399
4.23492
6.43863
10.7721
16.3366
19.4024
21.8145
23.3136
23.8055
23.7322
22.8584
21.2248
18.8949
15.9665
12.574
8.89875
5.15296
1.57063
-1.59581
-4.16764
-6.07615
-7.37353
-8.25537
-8.91129
-9.43051
-10.1154
-10.7244
-11.0288
-11.9839
-14.337
-21.5402
-26.7531
-30.2531
3.57049
6.41904
19.8654
26.7631
31.4847
33.6819
34.7424
34.4066
34.3278
33.0441
31.4045
28.9538
25.751
21.3714
15.677
8.13258
-1.30768
-12.2357
-24.0607
-36.0433
-47.4903
-56.9494
-63.5315
-66.3303
-64.8531
-58.8698
-48.4741
-33.6186
-22.6874
-4.28274
7.30727
17.6289
23.5339
26.0677
25.1401
21.788
17.0128
11.4431
5.76615
0.537186
-3.76728
-6.99577
-9.14271
-10.2857
-10.5261
-9.87676
-8.8537
-7.81977
-6.68738
-5.90682
-5.48173
-5.0744
-4.58719
-4.60767
-4.31497
-4.77757
-4.95015
-5.61265
-5.78417
-4.22327
-3.30259
-2.0722
-0.515647
1.46229
3.8836
6.56087
9.84446
13.0494
17.1274
19.7129
22.1718
26.5164
28.8176
30.9571
32.7942
34.2685
35.4643
36.5134
37.5357
38.823
40.5345
42.9081
46.5263
51.2234
58.1373
66.758
78.7787
92.5488
110.416
129.263
152.802
175.627
198.949
219.718
226.753
216.513
149.063
67.6667
35.0841
5.7205
0.556232
-4.25783
-5.12643
-6.37824
-4.13786
-1.52603
0.297573
0.956966
2.47256
2.89159
3.06147
3.15834
3.21159
3.21258
3.16489
3.06251
2.93366
2.7574
2.5696
2.36236
2.16353
1.90446
1.63661
1.47334
0.922582
0.619393
0.523591
-0.378085
-0.907093
-1.57228
-2.36633
-3.22099
-4.12436
-5.07207
-5.96659
-6.88364
-7.81027
-8.49399
-9.0236
-9.46112
-9.4778
-9.33173
-9.32055
-8.5771
-6.80479
-5.63453
-5.29706
-2.43802
3.59417
6.02944
9.63208
16.6285
20.2174
22.9077
24.3188
25.1423
25.0995
24.1971
22.4835
20.03
16.9398
13.3513
9.45527
5.47497
1.66231
-1.71861
-4.46518
-6.49514
-7.95368
-9.08837
-9.43208
-9.82305
-10.3773
-10.6802
-11.0574
-12.1516
-14.4516
-20.9038
-25.7954
-29.3988
1.621
-1.29101
-14.9189
-17.1065
-11.7271
-6.44132
-0.697498
3.89321
7.8902
11.0009
12.9448
14.7296
14.9944
14.1475
12.0935
7.94247
1.48191
-7.3491
-18.28
-30.5498
-43.4861
-55.3094
-65.06
-71.245
-72.8956
-69.2777
-60.424
-46.5164
-32.2779
-10.087
1.22212
19.049
29.6166
38.7548
44.0201
46.4293
46.7465
45.0849
42.1942
38.6307
35.2735
32.4084
30.0234
28.178
26.9156
26.2239
25.8548
25.56
25.2977
24.8263
23.9879
22.9479
21.8402
20.3636
18.8249
16.717
15.3182
13.2701
11.5776
9.41858
9.14324
8.74251
8.37402
8.56176
9.24452
10.1589
11.9497
14.1215
15.0657
17.3166
18.9771
20.9855
22.5331
23.8486
25.0678
26.1004
27.0812
28.1389
29.3867
31.2131
33.7301
37.1221
42.2998
48.5357
57.6236
68.1658
82.6061
97.8522
117.876
137.003
161.73
179.622
203.194
204.155
193.623
114.61
51.2546
26.5322
4.28787
-0.592328
-5.1829
-5.54799
-6.95341
-4.65389
-1.9936
0.0329356
0.569575
2.08411
2.53528
2.74065
2.88005
2.98227
3.03281
3.02659
2.96256
2.83571
2.69751
2.48654
2.3066
2.07462
1.90218
1.5867
1.42449
1.05889
0.846173
0.195527
0.0327757
-0.676415
-1.30548
-2.00778
-2.87608
-3.8216
-4.82642
-5.90692
-6.93348
-7.98044
-9.09484
-9.91862
-10.4716
-10.9819
-11.0673
-10.7831
-10.7016
-10.1586
-8.28949
-6.49071
-5.99969
-3.90636
2.58476
5.38851
9.28915
16.2315
20.7814
23.7573
25.465
26.4479
26.4609
25.552
23.7829
21.2311
18.0029
14.2385
10.1336
5.92274
1.87169
-1.7353
-4.68316
-6.87477
-8.21296
-9.39205
-10.2288
-10.5716
-10.7731
-10.8669
-11.252
-12.3839
-14.7791
-20.0092
-24.5548
-28.3079
0.405832
1.20793
-1.2477
-2.24838
-3.30732
-4.77254
-5.64071
-6.27883
-6.0523
-5.36664
-4.46435
-3.36857
-2.08265
-2.24841
-2.43772
-4.24601
-8.36999
-15.0231
-24.1952
-35.2727
-47.6901
-59.9265
-70.585
-77.7091
-80.0113
-76.2999
-66.5515
-51.4681
-34.2292
-12.055
5.19282
29.2229
40.0704
55.5562
67.2274
73.6536
77.857
78.6384
77.5036
74.7491
72.6018
70.4535
67.9615
65.5992
63.5597
61.6148
59.9408
58.4158
56.9417
55.3044
53.3161
51.0308
48.5619
45.7225
42.6359
39.0581
35.6077
32.0316
28.4687
25.2461
22.1059
19.2784
17.469
15.7947
14.5826
13.6619
13.4427
13.4685
13.4787
13.9709
14.5268
15.1414
15.6865
16.2219
16.8531
17.4331
18.3436
19.5288
21.1417
23.7185
27.2338
31.844
38.8818
46.7701
58.0597
70.2153
86.4228
103.563
124.044
143.034
164.463
175.71
192.341
161.771
93.4509
52.8401
22.8279
7.69637
-0.52281
-4.16556
-6.57742
-7.41638
-5.05301
-2.37657
-0.315902
0.322164
1.70351
2.17599
2.40804
2.5802
2.73114
2.84352
2.89256
2.86971
2.77977
2.62166
2.47592
2.22894
2.08276
1.79931
1.70202
1.28267
1.2718
0.746636
0.645529
-0.0107048
-0.374035
-0.800155
-1.67747
-2.25337
-3.16834
-4.18952
-5.29699
-6.55911
-7.7753
-9.00416
-10.4295
-11.569
-12.2205
-12.7851
-12.9831
-12.5884
-12.3133
-11.9215
-10.1255
-7.73667
-6.78648
-5.27666
0.506229
5.74061
8.35918
15.2424
21.1077
24.3851
26.6913
27.8394
27.9327
27.047
25.25
22.6217
19.2718
15.3403
11.0224
6.56504
2.24608
-1.625
-4.82224
-6.97383
-7.95728
-10.1896
-10.9945
-11.3586
-11.4151
-11.3693
-11.6096
-12.5769
-15.1143
-18.9464
-23.0367
-26.7068
0.525405
-0.253733
-0.558519
-0.261166
-0.640214
-0.082477
-1.60477
-2.13684
-3.34852
-2.20902
-7.37591
-9.23161
-6.02335
-11.4506
-15.3393
-19.3923
-25.2418
-32.8819
-42.3945
-52.8924
-64.4367
-75.2375
-84.2498
-89.3093
-88.9522
-81.676
-67.6799
-49.1697
-27.778
-2.26257
21.7506
48.6054
69.9059
88.5652
104.755
110.035
116.099
116.432
114.522
116.62
114.447
112.399
107.952
103.813
100.279
95.2558
91.7659
88.6141
85.5998
82.4843
79.1377
75.5435
71.7883
67.7184
63.3207
58.5029
53.5193
48.425
43.3232
38.3894
33.5636
29.2146
24.9734
21.2399
18.0433
15.2366
13.0089
11.2139
9.714
8.64377
7.83206
7.22611
6.8199
6.65035
6.75767
7.13035
8.14499
9.67051
11.9444
15.6426
20.432
26.7239
35.7519
45.3551
58.6343
72.6917
89.6713
109.595
125.685
145.647
150.845
160.491
107.626
66.2732
33.1571
10.6129
4.72653
-5.35763
-4.04485
-9.46073
-8.04023
-5.18287
-2.44451
-0.702912
-0.0160161
1.43387
1.8187
2.05018
2.25969
2.45975
2.63837
2.75518
2.79251
2.73937
2.61265
2.42297
2.27621
2.00433
1.89015
1.59019
1.5211
1.13897
1.08242
0.690601
0.301705
0.361776
-0.695689
-0.949656
-1.33231
-1.80058
-2.70037
-3.67123
-4.77714
-6.231
-7.67819
-9.149
-11.0698
-13.0066
-14.2595
-15.1165
-15.5148
-15.0482
-14.4312
-13.9975
-12.3517
-9.50374
-7.84894
-6.62436
-1.46687
5.21759
8.00731
12.7293
22.2396
25.4923
28.0062
29.3247
29.5188
28.6762
26.8734
24.1936
20.7397
16.6491
12.1138
7.39368
2.77811
-1.38937
-4.84214
-6.78886
-8.18341
-10.9795
-11.8079
-12.1917
-12.2196
-12.129
-12.2353
-13.052
-15.0023
-17.9225
-21.5518
-24.9244
0.56946
0.238928
-1.40278
7.12887
-12.0539
14.6381
-4.54995
-19.6907
16.3708
-1.00086
-2.7914
-1.13263
-1.37809
-2.38223
-2.83083
-4.56067
-6.39526
-8.967
-12.7565
-17.0401
-22.9136
-29.2823
-36.37
-43.4573
-48.9735
-50.7889
-46.6535
-31.4612
-6.63129
30.1779
68.2625
106.039
137.353
160.091
174.515
181.689
184.906
182.878
183.002
179.766
164.813
160.212
149.329
141.059
135.227
128.012
121.33
115.615
109.36
103.373
97.5029
91.7257
86.1091
80.4856
74.6506
68.6356
62.4142
56.122
49.843
43.599
37.4815
31.4926
25.6433
20.2128
15.3356
10.9113
6.98937
3.64273
0.809492
-1.52762
-3.47324
-5.02518
-6.05032
-6.71695
-6.63562
-6.12722
-4.60406
-2.25205
1.14751
6.47938
12.8172
21.2358
32.3078
43.9063
58.8912
74.8318
90.2866
111.709
118.901
135.524
119.165
77.66
44.0115
24.2458
10.4186
0.184499
-4.23399
-6.75882
-8.43291
-7.9089
-5.2268
-2.00844
-1.21993
-0.165752
0.980983
1.38508
1.64919
1.92184
2.17697
2.41349
2.61276
2.72221
2.71632
2.6237
2.46127
2.25007
2.11068
1.82706
1.74238
1.49926
1.39882
1.14466
1.15804
0.465364
0.621398
0.596013
0.789191
0.843164
0.920651
0.468382
0.0757447
-0.735353
-1.69753
-2.93901
-4.62086
-6.38422
-8.75035
-11.8473
-14.6666
-16.9314
-18.3441
-18.2524
-17.3132
-16.5593
-14.9289
-11.7288
-9.26834
-7.96775
-3.49437
4.48829
7.50651
11.8213
21.7281
26.4237
29.2568
30.7757
31.0982
30.3235
28.5383
25.8302
22.2963
18.0721
13.3378
8.35712
3.44335
-1.04122
-4.74097
-6.09809
-8.61766
-11.5877
-12.5987
-13.0604
-13.1089
-12.975
-12.9795
-13.5448
-14.9517
-17.2894
-20.2779
-23.1722
0.219629
0.104728
-0.101498
0.0157793
-0.107096
0.674677
-0.736765
-0.0971634
0.497516
-0.093357
-0.202215
-1.10088
3.1172
-8.56836
5.07009
-0.472257
-1.045
-0.668105
-1.2995
-1.43616
-2.26498
-2.86564
-4.30286
-5.13102
-6.83019
-7.60453
-7.15759
-6.24512
1.23769
16.1511
41.4922
76.5248
125.888
178.403
232.557
273.213
303.777
311.756
305.584
290.112
267.564
246.47
214.177
198.883
201.456
163.256
149.795
138.813
124.298
114.355
103.72
94.447
85.9296
77.981
70.0315
62.4695
54.725
47.256
40.0068
32.6868
25.6663
18.5303
11.8325
5.48976
-0.246988
-5.43822
-10.2753
-14.4275
-17.8124
-20.6346
-22.9965
-24.8087
-25.7337
-26.1873
-25.2814
-24.0025
-20.9939
-17.204
-11.9535
-4.31964
3.8309
15.1107
28.1319
41.6183
57.1835
74.0122
85.4151
96.4276
100.115
67.1249
44.1464
24.197
11.3489
2.02843
-2.01808
-4.24194
-7.87908
-7.23946
-7.46704
-5.16729
-2.09124
-1.46005
-0.459604
0.62004
0.92662
1.20613
1.54398
1.87557
2.17316
2.4418
2.64161
2.71868
2.65729
2.52802
2.32953
2.10024
2.00244
1.71933
1.63438
1.60774
1.49493
0.979077
1.71087
2.0142
1.97615
2.1629
2.40176
2.50172
2.20037
2.37182
1.8128
1.21266
0.428928
-0.508067
-2.07956
-2.00414
-3.63115
-7.23796
-10.6913
-14.6468
-18.6051
-20.6945
-20.6115
-19.8131
-18.0834
-14.514
-11.1764
-9.48673
-5.49378
3.43924
6.80772
11.3509
20.9466
26.9824
30.3777
32.17
32.6595
31.9851
30.2476
27.5375
23.9486
19.614
14.6998
9.46513
4.26237
-0.542352
-4.34773
-5.70085
-8.9789
-12.1293
-13.3604
-13.9407
-14.0455
-13.9032
-13.8121
-14.1229
-15.127
-16.8619
-19.2216
-21.5589
0.0607306
0.0580824
0.029303
-0.00938432
0.0516067
0.0779793
-0.0171509
0.059333
0.0816667
0.0607737
0.00324833
0.281074
-0.0791454
-0.0429777
0.342909
0.0862603
-0.848456
1.44744
0.517001
-1.56458
1.18137
0.474473
-0.0137205
0.257994
-0.185853
0.249069
-0.0650978
0.342655
0.999328
2.97481
8.04483
15.2615
31.5847
52.9097
86.7876
128.154
178.128
224.771
269.242
304.225
318.851
330.839
314.174
292.312
265.732
231.276
197.168
174.919
135.454
129.501
95.2544
81.1813
67.508
54.7698
42.3056
32.0645
21.0722
12.0918
4.3127
-4.22635
-11.6649
-18.2128
-24.5751
-30.7414
-36.4242
-40.6432
-45.0509
-48.7959
-51.2083
-52.9026
-54.2714
-55.0512
-54.5345
-53.4991
-50.4219
-47.0986
-41.6223
-35.6998
-27.4648
-16.9124
-6.62339
8.37648
22.1258
36.542
50.6165
64.5972
68.9705
49.6955
32.1045
22.004
9.41299
2.61915
-1.60619
-5.8422
-5.81917
-8.4849
-8.36184
-7.61416
-4.86964
-2.05092
-1.45569
-0.968811
0.241497
0.411831
0.735953
1.12843
1.54062
1.91595
2.24958
2.53299
2.71428
2.73777
2.60441
2.45833
2.23713
1.96716
1.9207
1.83308
1.59757
1.60884
2.47365
2.71074
2.08256
2.19565
3.73846
3.25442
3.86396
5.05955
5.11265
6.73013
7.91774
8.9235
9.65216
9.53271
7.71731
5.3973
2.31288
-2.95823
-5.55596
-7.46529
-13.1319
-18.5585
-21.613
-22.5749
-21.5478
-17.8719
-13.678
-11.3263
-7.5404
1.03927
7.52206
10.6216
20.0618
27.3302
31.3543
33.4922
34.1946
33.6568
31.9986
29.3161
25.7021
21.2835
16.2105
10.737
5.24066
0.152788
-3.86792
-5.29109
-9.08973
-12.6353
-14.0792
-14.8071
-15.0002
-14.8759
-14.7083
-14.8022
-15.4339
-16.6351
-18.3985
-20.1596
0.0507284
0.0413493
0.0274898
0.020805
0.0403549
0.0457683
0.0433911
0.0589405
0.0696127
0.0741498
0.0868395
0.132344
0.101868
0.157593
0.205614
0.222124
0.137169
0.498654
0.337103
0.167096
1.06661
0.0254118
0.696803
0.624308
0.477408
0.659701
0.632367
0.778051
0.925924
1.19955
2.01481
2.79105
5.50239
8.75126
15.3055
24.2708
39.0362
56.689
81.1194
107.906
136.16
164.904
188.191
201.332
208.313
202.253
188.358
167.026
137.419
108.846
79.2829
51.4106
26.4147
6.06782
-13.6728
-25.9765
-46.0119
-52.9978
-61.9329
-70.2575
-78.5335
-83.2175
-87.9404
-91.7139
-99.6311
-97.9866
-99.6247
-102.241
-101.379
-99.5983
-98.1653
-96.2853
-92.5544
-88.3935
-80.9552
-74.2501
-65.4805
-55.9313
-43.3147
-29.6554
-16.4697
1.38169
11.8609
27.2502
27.295
21.1164
14.8727
11.3831
6.05924
0.191363
-1.02714
-4.81446
-4.92307
-8.02798
-8.38682
-8.30997
-6.85922
-4.56343
-2.22974
-1.77259
-1.31312
-0.263509
-0.122897
0.232192
0.688025
1.16459
1.62455
2.03256
2.40056
2.67282
2.8115
2.77355
2.55583
2.39967
2.2358
1.87098
1.62117
2.73768
2.23792
2.97522
1.93635
2.57609
4.47018
2.5316
5.5598
5.72332
8.76439
12.438
14.2884
20.5984
23.5548
28.7744
32.729
32.8623
32.7753
29.4594
24.3698
13.1713
2.48586
0.168872
-6.72749
-10.4084
-17.0302
-21.9488
-23.6666
-21.1017
-16.5627
-13.5231
-9.73605
-0.936387
6.94218
10.1637
17.6592
28.4566
32.2929
34.7435
35.695
35.3283
33.7801
31.1556
27.55
23.081
17.8828
12.2008
6.41501
0.996127
-3.2604
-4.7801
-8.90539
-13.0784
-14.7315
-15.63
-15.9386
-15.8593
-15.6421
-15.5558
-15.8632
-16.592
-17.8045
-19.0092
0.0399633
0.0338736
0.0275405
0.0278043
0.0358313
0.04225
0.0486725
0.0578909
0.0671599
0.077317
0.0921394
0.111233
0.126674
0.156681
0.189182
0.220045
0.263972
0.34991
0.38918
0.369697
0.426367
0.417671
0.421604
0.570771
0.431324
0.573672
0.600914
0.651451
0.710539
0.741271
0.925746
1.00944
1.50706
2.22119
3.39656
4.82648
7.35974
10.5566
15.3237
21.5122
28.735
37.9885
47.725
57.4109
66.6409
72.277
75.9167
73.4379
67.283
54.5633
36.7486
15.2736
-9.76196
-34.8477
-61.5244
-84.0445
-105.9
-124.316
-137.728
-149.98
-158.03
-162.097
-167.063
-160.783
-197.016
-159.744
-159.651
-167.051
-159.437
-150.609
-144.686
-138.478
-129.926
-120.52
-105.841
-98.0579
-85.4195
-68.998
-51.994
-35.3558
-19.7116
-8.13175
-2.81124
0.382668
1.44245
2.57778
-0.874466
-4.19745
-3.29774
-5.02522
-7.11066
-6.81454
-7.47274
-8.27157
-7.56723
-5.95131
-4.34469
-2.37968
-1.91273
-1.9665
-0.803927
-0.611363
-0.240051
0.236388
0.774983
1.29775
1.76993
2.21359
2.62485
2.84403
2.89899
2.81797
2.56324
2.30887
2.29174
2.11843
1.27879
1.73865
1.11791
4.71207
5.41061
-0.881412
10.2669
4.42624
10.7759
13.5615
21.1977
28.5029
35.143
48.5309
53.2151
69.7609
73.1349
76.2604
81.7593
79.8405
73.2729
54.4084
36.7633
20.9848
2.81267
-2.5492
-9.23925
-15.1214
-21.8663
-22.4622
-18.9261
-15.7206
-12.0436
-3.20024
6.31814
9.71373
15.7331
28.7097
33.1119
35.9129
37.1418
36.9722
35.5593
33.0217
29.4632
24.9912
19.7212
13.886
7.83442
2.03283
-2.49527
-4.14448
-8.33988
-13.4271
-15.2655
-16.3796
-16.8291
-16.8184
-16.5782
-16.3479
-16.3799
-16.6989
-17.4157
-18.1085
0.0306265
0.0287569
0.0273941
0.029134
0.0337664
0.0391552
0.0453142
0.0525653
0.0608396
0.0707859
0.0834353
0.0987989
0.117101
0.140823
0.169403
0.20385
0.253857
0.306124
0.294038
0.305601
0.328891
0.374437
0.397189
0.556672
0.41194
0.611098
0.677816
0.730944
0.778183
0.800493
0.855442
0.873933
0.961811
1.04179
1.26793
1.5192
1.99183
2.78856
3.64036
4.82651
6.13572
7.98097
9.72895
11.7771
13.8283
15.5782
16.7162
16.9768
16.0162
13.2148
7.80753
0.366659
-10.3317
-23.2393
-39.0596
-56.3729
-75.4284
-95.5631
-114.506
-133.377
-150.44
-162.41
-175.327
-182.017
-187.954
-187.438
-175.694
-214.478
-183.406
-164.42
-155.914
-145.674
-134.16
-115.711
-102.303
-79.0328
-60.5257
-45.2749
-33.1382
-23.3001
-16.2641
-11.5988
-8.37468
-7.11805
-6.49181
-8.1617
-5.03402
-6.59381
-9.69633
-6.65077
-7.37304
-8.23132
-8.10451
-7.09839
-5.37355
-3.98674
-3.1779
-2.25145
-1.81241
-1.88911
-1.28821
-0.677543
-0.157701
0.389959
0.950182
1.48604
1.97913
2.46674
2.89918
3.02311
2.91514
2.81093
2.7704
2.25993
1.87214
2.73626
4.17535
4.12422
-0.234894
3.35099
13.7436
1.33973
9.0217
14.8865
22.8338
30.9502
44.7499
56.2521
71.4303
86.7561
97.0346
119.61
124.973
129.591
139.866
145.02
145.773
134.784
107.626
70.9017
38.9044
12.6494
2.30973
-6.48982
-15.3542
-19.8004
-19.2308
-17.1189
-13.981
-5.46108
5.54799
9.1913
14.7125
27.85
33.7175
36.9622
38.4825
38.5168
37.2512
34.8282
31.3691
26.9682
21.716
15.8221
9.56609
3.45499
-1.56939
-3.38469
-7.22719
-13.6277
-15.6087
-16.974
-17.6194
-17.708
-17.4739
-17.1378
-16.9397
-16.9084
-17.1889
-17.4294
0.0261158
0.0259134
0.0261497
0.0277036
0.0305639
0.0342829
0.0388053
0.0442472
0.0508393
0.0590162
0.0693009
0.0821031
0.0980804
0.118124
0.143457
0.174931
0.221639
0.21926
0.22102
0.275621
0.337212
0.369398
0.395248
0.485789
0.514418
0.58432
0.641032
0.695665
0.741781
0.784746
0.821428
0.838925
0.857424
0.850488
0.85207
0.886103
0.93898
1.01489
1.14822
1.34707
1.60608
1.9926
2.28329
2.80623
2.88577
3.12621
3.04869
2.8359
2.24293
1.3769
-0.292026
-2.23163
-4.94719
-8.6319
-13.0013
-18.7441
-24.9091
-32.8449
-40.1042
-48.5043
-56.8709
-64.537
-72.8282
-78.0239
-83.7025
-85.0801
-87.0718
-87.2813
-91.4278
-67.8516
-69.0672
-66.9115
-60.9949
-52.0191
-44.194
-36.5328
-29.8191
-23.7074
-19.6008
-15.5602
-13.0218
-11.2384
-10.3477
-8.86682
-8.43592
-6.28233
-10.7966
-7.4359
-7.4658
-8.44466
-8.35804
-7.64199
-6.35073
-5.08489
-3.93568
-3.20695
-3.09554
-2.36019
-1.96532
-1.93387
-1.50423
-0.523603
0.0731493
0.63767
1.16602
1.71778
2.29562
2.7913
3.11966
3.2036
2.78298
2.59137
3.21657
2.33684
2.51656
0.554794
0.809201
8.75882
-4.33842
1.7073
17.4073
12.9015
20.1541
31.1515
44.3772
59.7292
77.0618
91.8087
109.961
119.194
133.898
152.078
157.6
163.935
173.329
184.522
189.932
188.829
191.4
166.675
112.479
57.3099
25.8917
3.35808
-3.74044
-15.1407
-16.1082
-16.4315
-14.8421
-7.04133
4.73258
8.47945
14.0638
26.556
33.9522
37.7876
39.5813
39.7874
38.6568
36.3765
33.0993
28.8997
23.8284
18.0317
11.7536
5.44568
-0.309965
-2.41052
-5.61695
-13.3116
-15.6408
-17.3079
-18.1897
-18.4369
-18.2577
-17.8564
-17.4797
-17.1614
-17.0714
-16.9289
0.0230403
0.0230262
0.0232637
0.0240585
0.0254916
0.0275441
0.0302754
0.0338327
0.0384635
0.0445145
0.0524048
0.0626115
0.0757532
0.0925458
0.114384
0.140781
0.178096
0.173756
0.209172
0.258123
0.280902
0.326687
0.365944
0.414565
0.460969
0.51251
0.561236
0.609675
0.652011
0.693915
0.724108
0.747139
0.758911
0.750911
0.735831
0.684919
0.648993
0.595888
0.526562
0.502076
0.450293
0.382642
0.402439
0.359469
0.255359
0.17992
0.00474971
-0.256758
-0.595001
-1.08939
-1.63924
-2.68615
-3.78173
-5.0796
-6.49976
-8.20619
-9.96863
-11.9921
-14.0363
-16.3163
-18.5853
-20.8663
-23.1856
-25.4569
-27.5292
-28.7096
-29.9814
-31.3421
-30.9086
-28.4682
-28.0386
-29.9231
-27.0866
-22.6916
-20.9983
-18.9834
-17.1204
-15.1853
-13.9204
-12.1043
-10.8678
-12.144
-9.03619
-9.36864
-9.07193
-8.94448
-8.73762
-8.64559
-8.32592
-7.73671
-6.85309
-5.78067
-4.90751
-4.23532
-3.68631
-3.46023
-3.17074
-2.41626
-2.24547
-1.00974
-1.70464
-0.360555
0.312562
0.915847
1.39798
2.01546
2.7573
3.15983
3.13608
3.32199
2.51215
2.07558
1.11925
2.72919
4.14242
3.57512
-9.446
25.9669
-5.7021
8.17745
17.7345
27.2727
40.8579
56.823
74.5918
91.6136
106.195
117.824
126.946
131.565
143.3
147.626
155.693
163.979
175.143
189.428
202.802
214.875
223.283
222.755
205.674
147.973
77.2864
32.2032
8.25093
-2.81711
-11.9774
-13.8949
-13.8104
-7.11419
4.47052
8.1185
13.1766
25.2071
33.8019
38.1616
40.1134
40.384
39.3367
37.2256
34.2685
30.5177
25.9384
20.5542
14.5781
8.29607
2.32543
-1.60576
-3.92006
-11.5696
-15.1016
-17.191
-18.3874
-18.8507
-18.7915
-18.398
-17.904
-17.3647
-16.9824
-16.523
0.0196886
0.0192334
0.0188595
0.0187012
0.0188577
0.0194203
0.0205142
0.0223186
0.0250814
0.0291239
0.0348416
0.0427131
0.0533209
0.0673412
0.0858631
0.108228
0.137638
0.158834
0.193618
0.211772
0.237786
0.27835
0.311166
0.34863
0.388523
0.430295
0.471581
0.512276
0.549441
0.584625
0.611951
0.632886
0.641919
0.638839
0.621479
0.584877
0.536454
0.460011
0.376404
0.24106
0.117521
-0.0109747
-0.175015
-0.327126
-0.538671
-0.752211
-0.98405
-1.23861
-1.53141
-1.90031
-2.25576
-2.78437
-3.38267
-4.04198
-4.78119
-5.56163
-6.42322
-7.31882
-8.27631
-9.31159
-10.2742
-11.4558
-12.6555
-13.1966
-13.8769
-14.445
-15.0537
-15.5232
-15.8146
-15.8776
-16.1046
-16.0361
-15.6215
-14.8975
-14.171
-13.4185
-12.6676
-11.9004
-11.3498
-10.6586
-10.1828
-9.75983
-9.49954
-9.2626
-9.00673
-8.74165
-8.3693
-7.80782
-7.10671
-6.35579
-5.62138
-5.03511
-4.6095
-4.20607
-3.86147
-3.63865
-3.10536
-2.35814
-2.50603
-0.518423
-0.956277
-0.128387
0.55053
1.25687
1.69168
2.38336
3.29416
3.53954
2.98411
2.79302
4.27054
4.96578
1.9955
-3.47273
12.1641
-3.2194
-8.58243
16.6849
12.5747
18.6228
32.0983
49.5272
68.0635
85.422
101.037
110.674
117.15
120.397
121.366
124.035
125.555
129.369
135.688
145.069
158.267
174.746
193.837
214.26
230.793
245.694
249.864
219.792
155.74
91.9532
43.7557
13.4815
1.03313
-9.74948
-12.0857
-6.37363
4.64055
8.05645
12.8724
24.1512
33.14
37.6101
39.427
39.5353
38.4729
36.5564
34.0866
31.187
27.641
23.2045
17.8331
12.2231
6.28296
0.687571
-1.91222
-7.68206
-13.6769
-16.2732
-17.9282
-18.7322
-18.8941
-18.5865
-18.0781
-17.3956
-16.8158
-16.1001
0.015908
0.0148672
0.0137994
0.0127922
0.0119441
0.0113713
0.0112218
0.0116894
0.0130254
0.0155464
0.0196422
0.0257822
0.0345189
0.0464749
0.0624429
0.08222
0.108154
0.13728
0.164163
0.177026
0.202489
0.230299
0.259258
0.290663
0.323832
0.358111
0.392365
0.425846
0.457053
0.485547
0.508552
0.525367
0.5325
0.529354
0.513749
0.48287
0.437843
0.37125
0.287025
0.177284
0.0481625
-0.0999528
-0.263389
-0.46712
-0.679101
-0.914344
-1.16207
-1.43386
-1.72345
-2.04844
-2.38594
-2.75963
-3.17104
-3.64898
-4.14943
-4.66175
-5.21847
-5.77243
-6.37005
-7.00956
-7.58432
-8.29097
-9.0046
-9.4595
-9.9054
-10.3062
-10.6767
-10.9573
-11.196
-11.4055
-11.5403
-11.5399
-11.4604
-11.3087
-11.0931
-10.8049
-10.522
-10.2382
-9.96924
-9.7116
-9.46651
-9.2263
-8.95768
-8.64433
-8.26209
-7.81521
-7.3094
-6.75054
-6.24552
-5.76739
-5.33196
-5.02849
-4.63387
-4.19025
-3.91584
-3.35513
-2.46592
-2.17416
-2.54955
-0.438816
-0.2085
0.265392
0.853057
1.75826
2.17317
2.68271
3.52115
4.08026
2.88481
2.43375
-2.12556
3.48256
11.3863
-21.0621
26.5967
-8.99573
0.870029
8.9292
20.9011
35.7172
55.57
75.2413
91.1156
102.801
109.972
110.347
110.616
106.751
104.816
100.76
100.007
103.131
109.713
120.479
135.407
153.869
176.278
200.971
223.832
246.292
265.103
260.827
215.04
149.649
94.28
45.8287
19.0581
0.275089
-6.23588
-4.23653
4.91912
7.85492
12.1888
22.4001
31.1031
35.0248
36.1606
35.5534
34.2697
32.7277
31.4216
30.4266
29.1953
27.2286
23.8202
18.6511
12.4242
6.03843
0.275749
-3.14569
-10.1573
-13.9788
-16.3583
-17.7284
-18.3006
-18.2331
-17.8355
-17.1205
-16.452
-15.5647
0.011766
0.0101687
0.00848183
0.00677742
0.00515179
0.00372643
0.00265652
0.00214077
0.00243095
0.00383999
0.00674852
0.0116075
0.0189292
0.0292625
0.0431791
0.0609214
0.0842888
0.118711
0.135223
0.140524
0.171622
0.191831
0.215245
0.240824
0.267955
0.295998
0.324142
0.351563
0.377228
0.400187
0.418798
0.431711
0.43746
0.434261
0.420305
0.394148
0.354889
0.299403
0.22635
0.134486
0.0230956
-0.107404
-0.257209
-0.430803
-0.626119
-0.843901
-1.07746
-1.33471
-1.60492
-1.8953
-2.20391
-2.5295
-2.86751
-3.23752
-3.62684
-4.02414
-4.4455
-4.86448
-5.29215
-5.73763
-6.17734
-6.65147
-7.10746
-7.50781
-7.8809
-8.21943
-8.52044
-8.77558
-8.9932
-9.17344
-9.30854
-9.39494
-9.43363
-9.44485
-9.41841
-9.35238
-9.26483
-9.1516
-9.0228
-8.85258
-8.65449
-8.40974
-8.11747
-7.79651
-7.42889
-7.06477
-6.67615
-6.29001
-5.94772
-5.57972
-5.22335
-4.90022
-4.3946
-3.99965
-3.59277
-2.7202
-2.44664
-1.45583
-1.84538
-0.706282
0.0362379
0.694122
1.16778
2.40323
3.09089
2.2707
2.63753
0.984553
3.56911
4.18055
1.80337
-7.76514
16.8001
-23.1718
10.2958
3.2995
6.5335
17.5068
36.4778
56.88
78.6628
92.0607
100.43
96.9569
96.0144
88.9238
84.6039
75.4932
70.5124
68.4036
69.934
74.7717
82.8032
95.4035
112.541
133.386
157.895
184.98
211.548
237.596
263.913
274.718
250.857
199.023
138.937
83.94
43.2279
18.9859
2.47943
0.447315
5.62364
7.56939
11.2352
20.4141
26.2768
27.8051
27.0452
25.6974
24.6195
23.9859
25.0292
27.4487
29.9776
31.8472
31.988
29.3386
23.6723
16.3758
8.94378
1.30507
-2.67529
-9.88756
-13.4888
-15.6719
-16.8657
-17.2127
-17.0607
-16.3612
-15.6792
-14.6636
0.00657726
0.00448098
0.0022746
2.53345e-05
-0.00217248
-0.00419779
-0.00589596
-0.00707102
-0.00747819
-0.00681762
-0.00473073
-0.000803306
0.0054157
0.0143727
0.0264585
0.0420097
0.0618584
0.0886358
0.0999547
0.113151
0.134027
0.153088
0.173439
0.194884
0.217316
0.240383
0.263508
0.285974
0.306948
0.325493
0.340469
0.350715
0.355016
0.352042
0.340506
0.318971
0.286368
0.241005
0.181393
0.106545
0.015373
-0.0921862
-0.217326
-0.360968
-0.523809
-0.70632
-0.906064
-1.12463
-1.36046
-1.61234
-1.88066
-2.16379
-2.45923
-2.76964
-3.09035
-3.41902
-3.76153
-4.10884
-4.45515
-4.80112
-5.15067
-5.50666
-5.8541
-6.19313
-6.51767
-6.82435
-7.10381
-7.35836
-7.58529
-7.78341
-7.95048
-8.09021
-8.19621
-8.26162
-8.304
-8.29981
-8.26685
-8.18883
-8.08953
-7.94241
-7.77846
-7.57219
-7.34354
-7.09058
-6.80974
-6.54518
-6.2296
-5.94266
-5.60829
-5.24673
-4.91411
-4.47957
-4.00223
-3.703
-2.80553
-2.52296
-2.55548
-0.945551
-0.989297
-0.37197
0.560682
1.43637
1.49433
2.78565
4.42045
3.34435
4.98631
1.32356
-3.78768
14.5218
-12.6208
-21.2314
19.1224
-9.12896
-5.69805
1.64587
13.9709
33.2304
57.0448
76.0636
83.8011
87.6417
87.8747
83.6607
78.802
67.3772
56.9813
44.2186
37.7595
36.5357
40.3096
47.4325
57.1847
72.481
92.7299
116.379
142.843
171.161
199.329
227.152
255.956
274.687
265.697
228.069
173.678
116.497
69.4081
36.0141
15.6821
7.77132
6.47871
7.99359
11.6091
15.5917
14.337
10.7229
7.92796
8.05473
10.1114
11.5652
14.8258
22.5303
30.6599
37.1022
41.0731
41.6892
38.9312
32.2649
23.044
13.8681
3.91232
-0.497309
-7.20768
-11.3773
-13.9541
-15.0793
-15.429
-14.8743
-14.2539
-13.1124
0.000336072
-0.00207465
-0.0045703
-0.00708469
-0.0095257
-0.0117761
-0.0136882
-0.0150775
-0.0157176
-0.0153368
-0.0136181
-0.0102083
-0.00474633
0.00307533
0.0134211
0.0262241
0.0413601
0.0586071
0.0694298
0.0841459
0.104165
0.120473
0.138274
0.15682
0.175892
0.195236
0.214447
0.232959
0.250134
0.265194
0.27727
0.285414
0.288698
0.286
0.276456
0.25884
0.231969
0.194898
0.146717
0.0861483
0.0123093
-0.0751902
-0.177123
-0.29414
-0.426828
-0.575482
-0.739755
-0.919774
-1.11494
-1.32479
-1.54886
-1.78653
-2.03652
-2.29798
-2.56937
-2.84912
-3.13691
-3.43055
-3.72623
-4.02277
-4.31909
-4.61161
-4.89828
-5.17987
-5.45261
-5.71656
-5.96337
-6.19795
-6.4096
-6.60516
-6.77454
-6.9225
-7.04288
-7.13351
-7.20137
-7.22609
-7.2397
-7.1977
-7.15419
-7.04932
-6.94644
-6.79027
-6.62939
-6.43512
-6.21884
-5.99041
-5.71025
-5.45569
-5.09171
-4.79453
-4.41652
-3.93346
-3.69687
-2.8946
-2.71569
-1.5384
-2.8283
-0.445409
-0.317817
0.0839584
1.44069
3.30001
1.79944
2.6178
-2.44756
0.0562204
7.07412
0.830269
-21.8767
26.4068
-12.9588
-17.6394
-15.3158
-14.4312
-10.0939
4.81201
27.764
52.1093
64.7345
74.1776
78.0417
78.5249
77.8922
73.2839
61.9846
46.5532
33.8961
19.0193
13.3113
3.62488
12.5325
24.4525
35.134
54.4712
78.8415
105.737
133.913
162.991
191.682
220.14
248.797
269.49
268.577
241.345
194.178
140.328
91.3951
52.1846
27.1454
15.2106
10.203
6.75524
3.39711
0.488105
-6.60761
-19.4128
-19.5376
-16.0847
-7.11283
-1.07537
4.31506
17.8934
35.8457
45.3837
52.7271
56.3866
55.3521
49.7671
40.6238
29.5336
18.1849
7.91142
0.880095
-3.04035
-10.0246
-11.7958
-12.7403
-12.4235
-11.9564
-10.7259
-0.00660066
-0.00899865
-0.0114155
-0.013786
-0.0160229
-0.0180179
-0.0196373
-0.0207182
-0.021066
-0.0204534
-0.0186257
-0.0153152
-0.0102782
-0.00337175
0.00535161
0.0155576
0.0272659
0.0402664
0.0494017
0.0631239
0.0826174
0.0970836
0.112352
0.128127
0.144156
0.160165
0.175845
0.190729
0.204579
0.216515
0.22586
0.231871
0.233838
0.230494
0.221471
0.205875
0.183302
0.152295
0.112062
0.0618243
0.000849549
-0.0714073
-0.155456
-0.251761
-0.360719
-0.482602
-0.617481
-0.765303
-0.92586
-1.09885
-1.2838
-1.48035
-1.68779
-1.90537
-2.13209
-2.36686
-2.6088
-2.85659
-3.10835
-3.36204
-3.61697
-3.87105
-4.1217
-4.36855
-4.60888
-4.84463
-5.0675
-5.28399
-5.48055
-5.66953
-5.8329
-5.98444
-6.10935
-6.21179
-6.29528
-6.33712
-6.37943
-6.3537
-6.35121
-6.26429
-6.2049
-6.07783
-5.94317
-5.79482
-5.57776
-5.39388
-5.11125
-4.88745
-4.50401
-4.29029
-3.78024
-3.62997
-2.80348
-2.49078
-2.85138
-1.05418
-0.975458
-0.0549987
0.687058
-0.139487
2.26594
-0.0898779
1.094
4.52958
2.24086
-15.5901
24.7979
-11.1619
-36.1958
4.31483
-19.5522
-31.9353
-31.0529
-27.7295
-8.38833
20.0564
39.0072
55.0614
62.1946
71.0337
71.4118
69.6194
56.6311
39.2916
18.5913
-0.35442
-14.1156
-18.9878
-28.0238
-21.6039
-12.4111
5.07247
26.0188
38.8961
71.4094
102.653
132.067
160.855
188.695
215.922
242.226
261.542
263.024
241.812
201.124
149.783
99.4971
61.5681
37.8888
18.958
1.47989
-4.69676
-15.6165
-40.5345
-48.1666
-50.9588
-47.8526
-36.0428
-20.2557
-8.36611
1.42692
26.3911
43.983
56.2966
65.2231
70.3017
70.7215
66.1405
57.2272
45.2834
32.1093
19.5534
9.08022
1.97276
-1.47977
-7.98351
-9.16885
-9.01437
-8.74516
-7.55597
-0.0134325
-0.0153894
-0.0172729
-0.0190241
-0.0205674
-0.0218107
-0.0226438
-0.0229368
-0.0225397
-0.0212854
-0.0189977
-0.0155097
-0.0107007
-0.00455522
0.00284157
0.0111376
0.0204052
0.0322537
0.0398782
0.0519803
0.065944
0.0786959
0.0915248
0.104429
0.117333
0.129699
0.141655
0.15285
0.162668
0.170828
0.176775
0.179941
0.1795
0.175643
0.166806
0.152281
0.131285
0.103437
0.0679577
0.024244
-0.0282673
-0.0900478
-0.161493
-0.242934
-0.33464
-0.43679
-0.549458
-0.672612
-0.806123
-0.94979
-1.10333
-1.26643
-1.43864
-1.61942
-1.80814
-2.00404
-2.20633
-2.4137
-2.62526
-2.83953
-3.05619
-3.27333
-3.48989
-3.70497
-3.91639
-4.12544
-4.32503
-4.52153
-4.70145
-4.87815
-5.03123
-5.17889
-5.29921
-5.40583
-5.49087
-5.54159
-5.59321
-5.57552
-5.59258
-5.51071
-5.47656
-5.36341
-5.23444
-5.139
-4.8756
-4.8003
-4.42008
-4.32311
-3.87806
-3.66094
-3.38584
-2.83554
-2.81436
-1.48125
-1.63707
-0.685142
0.031983
0.0599916
2.83679
2.93602
2.52833
-0.0354738
-8.12463
6.96812
-2.54506
-31.2645
20.8829
-23.1209
-35.2431
-49.8713
-50.0925
-58.6921
-46.1012
-13.0047
14.5747
31.5274
42.5513
56.0689
58.6461
59.9188
51.0227
36.9731
15.3931
-4.52995
-28.7291
-37.5295
-50.1268
-53.8384
-50.6857
-40.9784
-25.2342
-5.07667
18.5173
35.0364
66.6091
108.939
136.519
164.473
190.661
214.236
232.893
242.577
247.036
227.441
188.607
142.63
102.86
69.9468
33.5387
-2.78674
-16.6121
-41.745
-83.0947
-89.0768
-86.9175
-75.8451
-59.0661
-37.6961
-18.6971
-7.29844
19.0856
39.0526
54.5249
66.5156
75.1611
79.9549
80.4282
76.4237
68.1003
56.3608
42.8056
29.3345
17.7189
8.85253
2.1044
-0.803272
-4.98613
-4.87925
-4.78211
-3.81595
-0.0190089
-0.0201032
-0.0210362
-0.0217642
-0.022234
-0.0223809
-0.0221297
-0.0213964
-0.0200913
-0.0181258
-0.0154202
-0.0119049
-0.00748664
-0.00235758
0.00344898
0.00978452
0.0169163
0.0258182
0.0314929
0.0410289
0.0493829
0.0586392
0.0679253
0.0771392
0.0861592
0.0952993
0.103804
0.111513
0.117968
0.122781
0.125524
0.125697
0.122823
0.116083
0.10513
0.0894628
0.0684555
0.041555
0.00825136
-0.031921
-0.0793748
-0.134461
-0.197466
-0.268617
-0.348073
-0.435926
-0.5322
-0.636845
-0.749759
-0.870782
-0.999734
-1.13638
-1.28038
-1.43127
-1.58857
-1.75176
-1.92011
-2.09232
-2.2679
-2.44606
-2.62711
-2.80942
-2.99294
-3.17586
-3.35749
-3.53747
-3.71191
-3.88404
-4.04435
-4.20215
-4.34084
-4.47614
-4.58538
-4.68788
-4.76136
-4.81686
-4.85463
-4.84771
-4.85262
-4.7813
-4.74839
-4.63595
-4.5288
-4.42478
-4.18056
-4.10381
-3.7428
-3.53399
-3.42759
-2.87712
-2.03634
-2.52421
-1.75293
-0.426423
-2.56299
0.983311
1.21072
2.63083
1.3215
-9.35145
7.08398
-1.544
-31.7632
10.8324
-13.4706
-29.8267
-65.3484
-38.6918
-91.2167
-93.2447
-78.3884
-34.2644
-3.97809
7.80685
27.705
38.0307
43.8106
49.6992
41.8578
30.0432
12.0069
-5.96542
-31.0848
-41.0981
-55.3687
-62.2814
-63.9429
-61.1916
-54.249
-43.0816
-27.343
-7.0096
17.5752
37.9111
72.8243
111.003
138.74
165.76
190.108
210.613
225.055
230.828
211.857
200.038
169.984
133.418
89.6518
34.0315
-16.3805
-41.6366
-100.099
-120.841
-123.184
-112.089
-93.9918
-70.8856
-41.9881
-28.9849
-5.54941
15.7513
33.781
49.4582
62.1963
72.1686
79.2911
83.1783
83.3771
79.5268
71.7188
60.6491
47.6985
34.7108
23.3241
14.2701
7.84719
3.49557
0.844167
-0.142038
-0.609331
0.194725
-0.0224009
-0.0225134
-0.0224248
-0.0221089
-0.021538
-0.0206782
-0.0194948
-0.0179591
-0.0160566
-0.0137803
-0.0111124
-0.00804635
-0.00423989
-0.000124621
0.00417006
0.00861618
0.013401
0.0191905
0.0228098
0.0275838
0.0347211
0.0390152
0.0434933
0.0480197
0.0524144
0.0563473
0.0597665
0.0623462
0.0638244
0.0638647
0.0620924
0.058032
0.0512751
0.0413973
0.0279213
0.0103746
-0.0117032
-0.0387555
-0.0711998
-0.109415
-0.15373
-0.204417
-0.261686
-0.325681
-0.396486
-0.47412
-0.558549
-0.649679
-0.747423
-0.851514
-0.961916
-1.07835
-1.20058
-1.32806
-1.46021
-1.5966
-1.73614
-1.87762
-2.02174
-2.16866
-2.31877
-2.47013
-2.62377
-2.77627
-2.93025
-3.08127
-3.23178
-3.37739
-3.51759
-3.65163
-3.77354
-3.88796
-3.98185
-4.06703
-4.11965
-4.16294
-4.16776
-4.15569
-4.11342
-4.04077
-3.97802
-3.8293
-3.76255
-3.55706
-3.34476
-3.20001
-2.78947
-2.53118
-2.40524
-1.80652
-1.02937
-1.91677
-0.0654412
-0.888413
3.59476
2.24328
-9.38853
-1.72456
9.23018
-24.2695
-6.85777
0.732723
-59.2317
-54.8553
-53.5787
-109.069
-107.046
-126.575
-72.7399
-21.3808
-8.82677
11.0622
22.4471
32.3175
42.5623
39.8614
30.3603
18.3978
5.09673
-11.0953
-32.0305
-41.3969
-53.1357
-57.3225
-57.7401
-55.6254
-51.8256
-46.3103
-38.6857
-28.2782
-14.45
3.31834
23.4736
46.4678
78.3761
108.769
136.643
161.427
181.712
195.708
201.482
195.433
183.07
153.772
120.076
71.614
-2.42358
-49.1817
-104.393
-131.206
-141.623
-131.652
-112.145
-88.2504
-62.956
-46.0669
-23.1311
-2.53551
13.8197
29.1195
42.7737
54.4411
64.0383
71.5169
76.6807
79.1672
78.5711
74.5594
67.2482
57.3222
45.8637
34.5309
24.617
16.6602
11.0636
7.28025
4.90108
3.56776
2.72996
3.0848
-0.0231863
-0.0227582
-0.0221372
-0.0213153
-0.0202861
-0.0190388
-0.0175615
-0.0158388
-0.0138358
-0.0116869
-0.00899389
-0.00602697
-0.00293458
-0.000137115
0.00225655
0.00463795
0.00706201
0.0094862
0.0117245
0.013849
0.0158487
0.017627
0.0189496
0.0195267
0.0200912
0.020004
0.0191138
0.0173885
0.0146229
0.0105842
0.00510332
-0.00330733
-0.0136443
-0.0259516
-0.0412308
-0.0600566
-0.0826853
-0.109502
-0.140892
-0.177214
-0.218786
-0.265865
-0.318638
-0.377215
-0.441628
-0.511829
-0.587717
-0.668965
-0.756054
-0.844564
-0.941971
-1.04004
-1.14345
-1.25399
-1.36614
-1.47428
-1.57933
-1.69048
-1.81543
-1.94653
-2.07911
-2.21097
-2.34189
-2.46886
-2.59757
-2.72028
-2.84842
-2.96311
-3.08412
-3.18306
-3.28797
-3.36187
-3.43872
-3.47879
-3.50328
-3.4953
-3.45638
-3.40127
-3.25686
-3.20338
-2.95989
-2.9767
-2.6412
-2.46774
-2.61662
-1.80822
-1.45372
-0.691917
-2.87119
0.759636
-1.12835
0.728964
2.27125
1.01235
-14.8775
16.1003
-20.0356
-27.1587
3.68421
8.63914
-120.272
-50.9329
-147.102
-149.039
-175.074
-94.5646
-28.9721
-11.9257
19.6451
30.3867
44.5322
53.056
39.8924
27.9114
18.5329
11.9486
3.48185
-8.68136
-24.2094
-35.3493
-45.9308
-48.4401
-48.2484
-45.6891
-41.9723
-37.7438
-32.9291
-27.2639
-20.3253
-11.5494
-0.383945
14.321
33.6935
49.1397
74.3301
96.4846
116.776
133.409
144.083
147.006
140.291
122.886
103.806
75.6216
9.74419
-50.9818
-81.6407
-113.029
-127.209
-123.708
-109.336
-88.0978
-65.465
-51.9529
-27.1584
-14.7455
0.128508
12.8388
24.6056
35.2687
44.761
52.9341
59.6823
64.8218
68.096
69.1743
67.7498
63.5748
56.8746
48.3359
39.3232
30.3078
22.4482
16.1127
11.8084
8.92216
6.79112
5.6227
4.91557
5.11869
-0.0229285
-0.0223963
-0.0216949
-0.0208275
-0.0198
-0.018616
-0.017276
-0.0157693
-0.0140562
-0.0120714
-0.00959103
-0.00722295
-0.00497113
-0.00296619
-0.00096979
0.000884585
0.00249128
0.00381051
0.00483385
0.00555612
0.00593652
0.00585354
0.00467624
0.00311605
0.00114157
-0.00140883
-0.00464706
-0.00868624
-0.0136822
-0.0198442
-0.0269879
-0.0399653
-0.0529965
-0.064703
-0.0758605
-0.0954662
-0.116758
-0.141224
-0.169421
-0.201693
-0.238322
-0.27954
-0.325513
-0.37632
-0.431952
-0.492296
-0.557247
-0.626002
-0.702364
-0.716224
-0.909875
-0.941567
-0.975467
-1.11263
-1.28761
-1.25962
-1.1741
-1.21482
-1.44072
-1.59799
-1.72825
-1.85091
-1.96854
-2.06463
-2.16801
-2.26394
-2.37033
-2.46303
-2.56702
-2.64083
-2.72376
-2.77231
-2.81162
-2.84799
-2.78991
-2.78442
-2.66016
-2.60937
-2.3062
-2.26404
-1.91757
-1.86795
-1.92183
-1.49162
-0.829174
-1.83186
0.524022
-2.67408
0.569905
2.92816
-2.87509
-12.1365
4.11009
20.4231
-46.749
-15.6817
30.7811
-111.827
-92.4107
-126.954
-151.18
-216.378
-123.289
-46.7936
-31.9933
18.1623
36.59
70.6912
72.8732
56.1928
38.1355
26.01
17.5514
10.5852
5.83811
-2.25117
-12.7028
-25.2373
-35.6379
-41.0099
-42.9386
-41.7981
-39.11
-35.358
-31.0319
-26.4292
-21.7029
-16.6263
-10.8567
-4.20097
3.25672
13.8876
28.2796
37.0938
53.6984
67.1392
77.9496
84.6409
85.8886
80.4776
69.3572
54.8811
19.8357
-31.063
-57.9671
-82.1343
-95.1701
-98.4204
-91.5421
-76.2251
-59.2516
-39.0873
-26.0956
-15.542
-5.06249
4.00947
13.3088
21.5617
29.2474
36.3084
42.7052
48.3237
53.0229
56.5641
58.6686
59.0092
57.3182
53.4166
47.5469
40.1203
32.0374
25.1068
19.1476
14.3741
11.1266
8.9618
7.43699
6.6875
6.28135
6.14953
-0.0220206
-0.0215996
-0.0210304
-0.0203189
-0.019474
-0.0185036
-0.017416
-0.0162172
-0.0149062
-0.0134738
-0.0119117
-0.0103185
-0.00873443
-0.00706567
-0.00489662
-0.00314417
-0.00192859
-0.00117522
-0.000845518
-0.000924057
-0.00133937
-0.00229776
-0.00344223
-0.00499426
-0.00711352
-0.00988075
-0.0133395
-0.017547
-0.0225836
-0.0285359
-0.035471
-0.0448436
-0.0549807
-0.0659045
-0.0785801
-0.0933828
-0.110366
-0.129751
-0.151789
-0.176732
-0.204818
-0.236262
-0.271225
-0.309818
-0.352065
-0.397921
-0.44729
-0.499992
-0.555997
-0.612469
-0.674149
-0.742641
-0.812781
-0.888897
-0.96419
-1.02904
-1.09738
-1.1569
-1.22507
-1.29874
-1.34521
-1.4801
-1.6416
-1.5746
-1.66508
-1.73613
-1.82349
-1.91438
-2.00403
-2.08411
-2.13717
-2.18578
-2.18059
-2.23888
-2.10062
-2.10327
-1.84724
-2.05647
-1.40804
-1.29211
-1.10965
-0.973108
-0.988559
-0.472017
-1.6535
-2.64039
2.47794
-4.50256
-9.94825
13.6906
-9.18144
-37.1245
-5.26919
23.2061
-79.1195
-59.9591
-151.052
-143.908
-217.99
-149.505
-66.7411
-63.5808
2.18114
29.7687
69.8763
107.867
81.7123
58.8186
43.9171
31.7298
21.1939
13.1339
7.48256
1.03735
-5.32178
-15.9284
-25.2061
-32.4321
-35.9684
-37.4924
-36.9206
-34.9469
-32.2827
-28.9231
-25.0411
-21.0002
-16.8348
-12.7774
-8.26689
-3.04192
3.40852
9.02825
15.708
22.4541
27.3405
33.7567
36.1263
35.0177
30.334
22.6236
9.68645
-12.8168
-34.3774
-52.4974
-62.2241
-65.3545
-60.1639
-53.1404
-40.8832
-30.0377
-20.9539
-7.24263
1.00991
8.63042
14.7509
18.7177
22.6747
26.7502
30.8931
34.9361
38.7269
42.0993
44.8617
46.7506
47.5395
46.9841
44.9447
41.3696
36.6716
31.4806
25.8714
20.6969
16.1925
12.584
10.1005
8.50431
7.46025
6.98495
6.76149
6.60316
-0.0204519
-0.0202319
-0.0198855
-0.0194165
-0.0188304
-0.0181335
-0.017333
-0.0164374
-0.0154556
-0.014398
-0.0132835
-0.0121521
-0.0110369
-0.0099417
-0.00879036
-0.00774026
-0.00692354
-0.0064105
-0.00624105
-0.00645777
-0.00706126
-0.00811997
-0.00813798
-0.00885427
-0.0103842
-0.0126651
-0.0156824
-0.0194504
-0.0240131
-0.029411
-0.0357384
-0.0432679
-0.0519616
-0.0618193
-0.0730786
-0.0859061
-0.100484
-0.11697
-0.135542
-0.156369
-0.179584
-0.205339
-0.233688
-0.264702
-0.298328
-0.334529
-0.373048
-0.413773
-0.456185
-0.501981
-0.535254
-0.612828
-0.688963
-0.763342
-0.837234
-0.903565
-0.992865
-1.02649
-1.05441
-1.09344
-1.1282
-1.19367
-1.24182
-1.27935
-1.33596
-1.3752
-1.50579
-1.45868
-1.70659
-1.67304
-1.74562
-1.80238
-1.74555
-1.8055
-1.65217
-1.66413
-0.674585
-1.60041
-1.52104
-0.696994
-1.15919
-1.79715
-1.99843
-0.436276
-2.34661
-9.00918
5.46802
-9.34785
-36.3798
44.3459
-53.3991
-35.2246
-77.6234
-72.8101
-135.561
-231.156
-196.62
-88.0672
-86.0406
-33.1923
19.1573
55.2134
114.626
99.3015
79.0954
67.3934
50.4667
36.0862
26.9245
20.0699
13.1912
6.73895
0.411234
-7.41656
-15.4039
-23.2981
-30.0935
-34.2096
-36.083
-36.5934
-35.5649
-33.2023
-29.615
-26.0874
-22.5603
-18.9376
-15.2579
-11.2829
-7.95741
-4.75191
-1.58723
0.189319
2.04206
3.29114
3.77453
4.78408
1.33534
-2.89701
-7.81602
-14.0481
-25.9695
-32.4793
-38.2607
-40.7449
-39.0223
-36.1996
-29.1356
-17.7118
-5.11232
5.77652
16.792
21.3464
23.6196
24.3889
24.8024
25.3868
26.2749
27.7181
29.5422
31.5388
33.5318
35.3437
36.766
37.5395
37.5185
36.5349
34.5378
31.5149
27.844
23.7956
19.7345
16.2636
13.169
10.6538
8.78314
7.66987
6.95635
6.75737
6.68301
6.51834
-0.0182971
-0.0182847
-0.0181748
-0.0179645
-0.0176538
-0.017244
-0.0167394
-0.0161451
-0.0154692
-0.0147219
-0.0139168
-0.0130777
-0.0122266
-0.0113862
-0.0105583
-0.00980003
-0.00916651
-0.00872539
-0.00851132
-0.00859768
-0.008997
-0.00982956
-0.0108062
-0.0120528
-0.0137163
-0.0158801
-0.0186407
-0.0220266
-0.0261732
-0.031062
-0.0368862
-0.0436494
-0.0516142
-0.0607226
-0.0712951
-0.0833004
-0.0970896
-0.112666
-0.130321
-0.150175
-0.172334
-0.197079
-0.224333
-0.254346
-0.286967
-0.322529
-0.360288
-0.401238
-0.443554
-0.489602
-0.53302
-0.584481
-0.639518
-0.697956
-0.760634
-0.818479
-0.89069
-0.951246
-1.00598
-1.05636
-1.10022
-1.16282
-1.19284
-1.20935
-1.27519
-1.30446
-1.33058
-1.39739
-1.436
-1.52926
-1.68277
-1.78629
-1.2119
-1.4923
-1.42218
-2.08564
-0.0733565
-2.87657
-2.18507
-1.64502
-0.951435
-3.59996
-4.49522
-0.998409
-4.72197
-12.0854
-15.7415
-12.4089
-72.4269
-22.3781
-68.0542
-172.078
-172.733
-240.941
-143.497
-66.518
-61.1327
9.36987
42.6136
95.7669
97.3807
83.5424
80.5093
64.8899
52.0332
43.7132
34.4398
25.6304
19.2259
13.6184
7.54394
1.21358
-5.63871
-13.0871
-19.102
-25.7066
-30.3716
-33.5494
-35.5397
-36.34
-35.8291
-34.1426
-31.0483
-27.7557
-24.1388
-20.3587
-16.6299
-13.0128
-10.7541
-9.26948
-8.88459
-9.41492
-10.3701
-11.9144
-13.9221
-16.0549
-19.2514
-23.1986
-26.7552
-30.0358
-32.1506
-30.0575
-27.4044
-22.2113
-14.1118
-2.15971
11.7187
21.644
29.5211
35.6116
35.9132
35.3542
33.7834
31.1646
28.9606
27.4635
26.5164
26.2621
26.5197
27.0924
27.8161
28.5193
28.9957
29.015
28.5188
27.3958
25.6495
23.2591
20.5969
17.7967
14.9849
12.7613
10.6536
8.92772
7.4155
6.69552
6.16954
6.21624
6.17229
5.80327
-0.0158845
-0.0160396
-0.0161463
-0.0161762
-0.0161198
-0.0159668
-0.0157246
-0.0153948
-0.014985
-0.0145045
-0.0139542
-0.0133612
-0.0127078
-0.0120554
-0.0113503
-0.0107003
-0.0100542
-0.00955702
-0.00910134
-0.00894567
-0.00893089
-0.00925395
-0.00983761
-0.0107745
-0.0121537
-0.0139361
-0.0163677
-0.0192254
-0.0230665
-0.0272395
-0.0327378
-0.0385814
-0.0461486
-0.0541525
-0.064276
-0.0749993
-0.0882096
-0.102396
-0.119155
-0.13768
-0.158511
-0.181966
-0.207824
-0.236343
-0.267602
-0.302458
-0.337978
-0.380261
-0.420854
-0.467957
-0.513174
-0.565557
-0.617217
-0.673761
-0.732796
-0.787111
-0.857591
-0.908704
-0.984856
-1.02605
-1.10188
-1.13212
-1.22102
-1.21947
-1.37133
-1.35408
-1.42254
-1.5119
-1.43829
-2.06824
-0.663494
-2.97831
-2.54777
-1.4924
-3.05895
-2.55589
-2.68796
-3.36204
-3.1053
-5.19187
-4.00523
-8.63829
-10.009
-17.0625
-22.9938
10.9067
-101.264
-61.9102
-127.32
-153.025
-217.229
-161.036
-79.0848
-83.7985
-9.3656
19.8742
79.0705
88.8622
74.7365
73.8404
68.027
59.6449
54.4921
45.5342
37.5309
31.5474
25.3793
19.3082
14.1809
9.18952
3.66063
-2.5657
-9.3811
-13.776
-19.635
-24.2451
-28.0438
-31.2867
-33.9668
-35.7527
-36.3754
-35.9821
-34.0443
-31.2764
-27.7658
-24.0125
-20.4666
-17.5273
-15.9178
-15.3625
-16.0049
-17.3461
-19.1626
-21.3484
-23.6793
-25.8157
-27.7873
-29.3183
-29.7586
-28.365
-22.7419
-17.6509
-6.31587
4.68142
16.6787
28.6153
35.744
42.9132
46.7446
48.5405
45.9803
42.1867
37.6791
33.0751
29.2629
26.4493
24.4275
23.128
22.3805
22.0159
21.8976
21.8703
21.7495
21.3426
20.666
19.6363
18.2805
16.5449
14.785
12.9573
11.0925
9.81761
8.38646
7.2894
5.97693
5.58128
5.09671
5.28942
5.12735
4.23537
-0.0139683
-0.0141303
-0.0144159
-0.0146418
-0.0147823
-0.0147576
-0.0146348
-0.014411
-0.0141154
-0.0137823
-0.0133361
-0.0129251
-0.0122747
-0.0118021
-0.0109513
-0.0103929
-0.0094916
-0.00907884
-0.0079308
-0.00792449
-0.0073489
-0.00743102
-0.00729932
-0.00786324
-0.0091523
-0.0104123
-0.0130521
-0.0151523
-0.0197029
-0.0220809
-0.0290208
-0.032674
-0.0423619
-0.0478646
-0.0606544
-0.0686243
-0.0847315
-0.0963814
-0.115254
-0.132476
-0.153723
-0.176788
-0.202924
-0.229496
-0.261837
-0.296066
-0.326466
-0.377156
-0.407445
-0.464656
-0.494972
-0.567354
-0.603125
-0.684525
-0.713816
-0.800955
-0.832529
-0.908149
-0.957807
-1.03298
-1.07368
-1.15617
-1.40076
-0.773137
-1.78446
-1.10968
-2.02396
-1.90232
-2.06571
-1.82372
-3.11613
-2.4074
-4.13268
-2.97827
-6.22758
-4.65296
-9.61495
-7.75105
-12.9152
-14.7815
-14.0522
-19.2209
-35.7217
-36.6379
-62.3397
-139.941
-122.427
-187.755
-152.577
-76.458
-93.9275
-27.5228
4.43652
55.8637
94.1136
67.3814
70.9423
63.6943
52.3799
50.5224
48.7712
43.733
38.6904
33.1733
28.4075
24.4217
20.1033
15.475
10.9084
6.23692
1.38207
-4.48207
-9.37378
-12.0463
-16.6209
-20.0521
-23.589
-27.2501
-30.8795
-33.9369
-36.0283
-37.1269
-36.534
-34.7547
-32.0246
-28.887
-25.8784
-23.4505
-21.9655
-21.4582
-21.9055
-22.8754
-24.3052
-25.8739
-27.183
-27.9937
-27.9887
-26.8666
-24.083
-18.4904
-8.52295
-2.32462
11.4058
23.7318
34.748
43.776
50.6479
55.22
56.0407
54.2115
49.2993
43.5174
37.4309
31.7824
27.0992
23.5061
20.8294
18.8896
17.5181
16.5662
15.9272
15.4648
15.0297
14.4599
13.8279
13.0509
12.1642
11.0351
10.0365
8.97231
7.7505
7.16735
6.15689
5.51635
4.27666
4.13639
3.49962
3.67369
3.16507
1.41432
-0.0139796
-0.0131635
-0.0135099
-0.0136767
-0.0139288
-0.0135881
-0.0132868
-0.0128322
-0.0124148
-0.0121583
-0.0114798
-0.0113747
-0.00997759
-0.010036
-0.00802627
-0.00772451
-0.00580832
-0.00652061
-0.00171236
-0.00460075
-0.00198329
-0.00296178
-0.000758452
-0.000716262
-0.00193349
0.000683717
-0.00500506
0.00108682
-0.0101019
-0.00173799
-0.019502
-0.0085523
-0.0322948
-0.0203114
-0.0488766
-0.0382762
-0.0694019
-0.0646782
-0.0925467
-0.101597
-0.119442
-0.145259
-0.158202
-0.188972
-0.208819
-0.247438
-0.247537
-0.310565
-0.317662
-0.419023
-0.33688
-0.519461
-0.439583
-0.627312
-0.51639
-0.710637
-0.61964
-0.773561
-0.804262
-0.807302
-1.07297
-0.877338
-1.32712
-1.15066
-1.54152
-1.69852
-1.9634
-2.30522
-3.13101
-3.00821
-5.16013
-4.91014
-7.82711
-9.3177
-11.3176
-15.1127
-22.0215
-30.9583
-27.7965
-26.3155
-36.2396
-41.3404
-92.8905
-81.3308
-175.957
-134.003
-86.4095
-100.35
-31.2684
0.529966
49.0666
79.6285
67.01
68.4404
56.7176
42.8515
45.0558
42.2416
37.2866
36.2367
35.5288
32.4561
28.8196
25.422
22.4103
19.5093
16.1344
12.207
8.23573
4.20443
0.265781
-3.50166
-6.4263
-7.84783
-10.831
-13.4042
-16.625
-20.4668
-24.7596
-29.0797
-32.7476
-35.4395
-36.8159
-36.7058
-35.5233
-33.6235
-31.4689
-29.4629
-27.871
-26.8209
-26.311
-26.3668
-26.6715
-26.9651
-26.841
-25.9229
-23.9283
-20.5077
-14.8216
-6.76164
2.57742
10.7096
24.369
35.9224
45.3812
52.845
58.1487
59.7433
58.26
54.1188
47.8616
41.1058
34.3953
28.3449
23.3039
19.3437
16.2965
13.963
12.2177
10.9217
9.98597
9.29887
8.7484
8.19615
7.74626
7.29912
6.8641
6.27273
5.87064
5.31531
4.46811
4.26313
3.48916
3.08501
1.86649
1.80219
0.803152
0.713652
-0.351518
-2.72371
-0.0163035
-0.00650894
-0.00625922
-0.00439744
-0.00586967
-0.00294386
-0.00304094
-0.000988196
-0.00110321
-0.000686317
0.000616205
-0.000133313
0.00426973
0.00268874
0.00775503
0.0103353
0.0120251
0.00937862
0.0316494
0.00873787
0.0262473
0.0183042
0.0346919
0.0353176
0.0353368
0.0519052
0.0326181
0.0733245
0.0280304
0.0967849
0.0234831
0.118676
0.022655
0.135303
0.0296531
0.143672
0.0488136
0.140759
0.0852799
0.123481
0.142666
0.0917537
0.22039
0.0463424
0.319878
-0.0164512
0.435319
-0.0769444
0.519761
-0.0962554
0.614805
-0.0251548
0.628283
0.0972812
0.549291
0.264819
0.306976
0.467849
-0.176167
0.676064
-0.941872
0.729533
-1.93293
0.262845
-3.05313
-0.887971
-4.29815
-2.98693
-5.9102
-6.59307
-8.00566
-13.0679
-9.71813
-22.6374
-12.7935
-33.0826
-18.385
-16.0565
-19.0337
-40.8961
-63.9537
-138.736
-101.316
-105.128
-109.808
-13.7748
14.2303
62.5838
75.4104
69.8937
51.1381
41.8505
42.003
43.3555
33.7876
27.3733
28.9313
28.2859
26.3392
26.1248
25.816
23.7074
21.2291
19.0617
16.8724
14.5335
11.6713
8.3432
5.38845
2.65211
0.448308
-0.975164
-1.966
-2.84721
-3.45465
-5.07305
-7.20908
-10.2355
-14.0544
-18.5121
-23.0026
-27.0669
-30.4345
-32.5413
-33.8802
-34.3373
-34.0282
-33.1866
-31.9659
-30.4723
-28.6952
-27.4706
-26.3067
-25.0764
-23.6162
-21.2765
-17.8227
-12.9965
-5.09199
3.4984
8.73025
21.8113
31.9797
41.7007
49.3559
54.9722
57.9052
57.4611
54.4295
49.1216
42.4427
35.5826
29.0037
23.1275
18.2019
14.2435
11.0957
8.60974
6.69386
5.21586
4.12162
3.3254
2.74846
2.27128
2.00265
1.81535
1.67437
1.44762
1.33471
0.940686
0.126313
-0.152375
-0.754946
-1.03394
-2.09227
-2.47087
-3.57787
-3.97856
-5.00252
-6.60668
-0.120603
-0.000114959
0.0312835
0.0533031
0.0345515
0.0536432
0.0366447
0.0526486
0.0358219
0.0435231
0.036376
0.0346149
0.0456994
0.0297117
0.0623277
0.0281974
0.0786958
0.0270244
0.0975092
0.0335665
0.11435
0.0503955
0.133
0.0821121
0.152086
0.13056
0.173309
0.197427
0.198936
0.281603
0.232501
0.379977
0.279301
0.487968
0.345143
0.600623
0.434983
0.713499
0.553421
0.824854
0.70401
0.928298
0.886351
1.01683
1.09328
1.09173
1.29933
1.15943
1.4849
1.20107
1.56418
1.14211
1.54184
1.02512
1.41154
0.866753
1.15628
0.659539
0.7582
0.411592
0.240092
0.145515
-0.319315
-0.0519818
-0.806556
-0.368499
-1.2795
-0.810156
-1.67244
-1.30348
-1.93496
-1.42698
-2.01593
-0.442621
0.359478
2.90336
26.8266
-4.37709
-25.2701
-61.2999
-131.017
-151.027
-25.7485
21.0725
81.2679
144.994
67.0263
26.3037
34.5497
38.2656
22.648
19.1471
23.8081
22.1398
16.7822
15.1022
16.2547
16.5235
15.8519
15.8393
15.4265
13.737
11.9766
10.3126
8.50525
6.68904
4.78065
3.04767
1.76317
0.824704
0.252183
0.025766
-0.0239734
-0.0235618
-0.20039
-0.30729
-1.05233
-2.7728
-5.26854
-8.43579
-12.0263
-15.6505
-19.0623
-21.7361
-23.2383
-24.1552
-24.5462
-24.6058
-24.3602
-23.8234
-22.9936
-20.9135
-18.474
-15.5357
-12.2058
-9.83856
-5.99381
-0.478385
6.32684
9.89894
18.2672
26.9607
34.0291
40.3152
44.9455
47.6486
47.9287
45.8586
41.9676
36.7183
30.8205
25.0321
19.7827
15.1372
11.2068
7.95997
5.2865
3.0823
1.26374
-0.245644
-1.46326
-2.44079
-3.22521
-3.89206
-4.36684
-4.75756
-5.09648
-5.44737
-5.79292
-6.40269
-7.33817
-7.68119
-7.26617
-6.24479
-6.60477
-6.41789
-6.1424
-5.48095
-4.59181
-1.95604
-0.183262
-0.186823
-0.197233
-0.207943
-0.221379
-0.231486
-0.244
-0.254135
-0.266694
-0.27799
-0.290327
-0.302741
-0.313881
-0.327371
-0.337172
-0.352282
-0.361142
-0.379024
-0.3882
-0.409965
-0.42051
-0.446179
-0.459919
-0.490101
-0.509603
-0.544796
-0.573097
-0.613791
-0.654488
-0.701253
-0.757906
-0.811449
-0.887243
-0.948685
-1.046
-1.11711
-1.23705
-1.32035
-1.46216
-1.56076
-1.72148
-1.83862
-2.0128
-2.15105
-2.33068
-2.49014
-2.66609
-2.8403
-3.00241
-3.17876
-3.31031
-3.47534
-3.55964
-3.68722
-3.70269
-3.76429
-3.68431
-3.65247
-3.4325
-3.28415
-2.84535
-2.56293
-1.78654
-1.34042
-0.101307
0.646874
2.32683
3.9181
5.59155
9.3863
10.0579
18.1683
17.8734
30.0246
37.6708
40.44
92.6311
82.9614
18.9627
-19.3693
-24.2359
-19.7804
-1.48771
-1.97905
14.3286
15.1745
4.12299
0.744633
4.1584
3.65423
1.56736
2.26928
3.1308
2.58483
1.89334
1.92117
2.2143
2.32651
2.16485
2.08861
1.90124
1.48709
1.10435
0.760814
0.444502
0.192896
-0.00496661
-0.127454
-0.172012
-0.167661
-0.138393
-0.0965638
-0.0602136
-0.0416192
0.0885256
0.265354
0.354011
0.208165
-0.665113
-3.89684
-7.72974
-12.6963
-17.6858
-21.6119
-23.8724
-24.4059
-23.3624
-20.9958
-17.5587
-13.279
-8.29539
-3.10326
2.6448
9.17359
11.8196
17.8288
22.3933
26.7057
30.2993
32.8322
35.1548
35.9597
35.4836
33.7472
30.8723
27.1095
22.7557
18.2525
13.9831
10.1946
7.12055
3.01156
2.70988
2.39476
2.03358
1.62113
1.13843
0.565608
-0.108995
-0.888927
-1.75968
-2.7066
-3.70391
-4.71363
-5.65473
-6.46805
-7.08791
-7.47353
-7.57742
-7.40461
-6.90267
-5.98679
-4.86169
-3.99464
-2.79636
-1.43461
-0.51578
0.507416
0.915973
0.677683
-3.86972
-3.13012
-1.31671
-0.791991
-0.647608
-0.500481
-0.392532
-0.306904
-0.371341
-0.379393
-0.481729
-0.612669
-1.08526
-1.53481
-2.19261
-2.70162
-3.23793
-3.60674
-3.77013
-3.80957
-3.75672
-3.60089
-3.17225
-2.86646
-2.61963
-4.08534
-1.31895
-0.539263
1.46341
3.41983
4.48873
5.05972
4.75483
3.3767
1.45077
0.242355
-0.294304
-1.88839
-3.10954
-5.30153
-5.60297
-5.66675
-5.27809
-4.4393
-3.85563
-2.93917
-2.46775
-1.73635
-1.53424
-0.919768
-5.03691
-0.601124
0.752622
2.78858
7.53994
9.53958
10.4205
9.92256
7.80812
4.45234
1.04951
-1.03368
-2.10348
-4.926
-9.21512
-9.03886
-8.42921
-7.21635
-5.23023
-3.38081
-1.43836
-0.192204
1.18914
1.77825
2.48521
-6.02978
-1.26005
0.116933
2.13518
6.99062
10.0028
11.2805
11.058
9.05314
5.42264
1.26808
-1.64463
-2.79682
-5.95448
-11.5425
-11.332
-10.4623
-8.66831
-5.99766
-3.39656
-0.837328
0.935362
2.49516
3.56317
4.29679
-5.64094
-1.81735
-0.593196
1.35611
6.25031
9.39536
10.735
10.562
8.63172
5.01593
0.755564
-2.28594
-3.58632
-7.43516
-12.9995
-12.8259
-11.8311
-9.61289
-6.48544
-3.38395
-0.513876
1.54106
3.0849
4.28014
5.25737
-5.17821
-2.12682
-1.03543
0.979071
5.93932
8.63473
9.83514
9.55352
7.54774
3.96106
-0.174141
-2.98337
-4.51187
-9.59559
-13.8266
-13.944
-12.8336
-10.2227
-6.70965
-3.22888
-0.18244
1.90747
3.10386
5.24908
5.58572
-4.45246
-2.24057
-1.14329
1.22315
5.94035
7.96162
8.94942
8.44515
6.26123
2.65696
-1.28258
-3.65045
-5.60765
-11.9949
-14.4376
-14.9093
-13.6229
-10.601
-6.69904
-2.90065
0.212111
2.07664
3.13443
5.91172
5.91239
-3.81903
-2.39899
-0.85772
2.71582
5.52592
7.5169
8.28038
7.45216
4.98393
1.32477
-2.49293
-4.0517
-7.06874
-13.7954
-15.4723
-15.8066
-14.2719
-10.7772
-6.45158
-2.61779
0.51966
2.20855
3.4912
6.48463
6.2045
-3.95416
-2.13912
0.538996
3.13595
5.67758
7.47554
7.92731
6.69113
3.85728
0.0698387
-3.30072
-4.84031
-8.74867
-15.3815
-16.4685
-16.6454
-14.8228
-10.7009
-6.39062
-2.47716
0.695198
2.48928
4.2107
6.51859
6.54937
-3.87592
-1.49859
1.01865
3.76099
6.23247
7.82101
7.93264
6.24244
2.96963
-0.985603
-3.9053
-5.61425
-10.8782
-16.5168
-17.4277
-17.4388
-15.2884
-10.8641
-6.63204
-2.3246
0.910183
2.74714
4.83387
6.47324
6.82653
-4.57045
-1.411
1.4963
4.51552
7.0581
8.51573
8.31497
6.15931
2.39365
-1.77728
-4.31826
-6.31364
-13.3909
-17.0941
-18.4019
-18.1955
-15.7495
-11.3794
-6.79845
-2.12447
1.19695
3.00193
5.41373
6.75097
6.84467
-7.10928
-1.83043
1.77833
5.26179
8.04953
9.50282
9.06494
6.46951
2.1848
-2.24415
-4.58551
-6.96596
-14.9459
-18.2205
-19.4169
-18.9353
-16.2999
-11.7755
-6.86736
-1.85241
1.51058
3.36928
6.05796
7.15646
6.78873
-9.21946
-4.56943
1.98483
5.89983
9.11161
10.7143
10.1451
7.16836
2.36988
-2.44205
-4.62779
-7.47849
-16.1426
-19.3631
-20.4555
-19.7011
-16.9273
-12.1277
-6.85183
-1.49665
1.97171
3.63441
6.89854
7.66464
6.71782
-10.6319
-7.76063
0.590572
6.27795
10.1324
12.0577
11.4919
8.22216
2.93245
-2.31823
-4.59827
-7.7592
-17.0842
-20.4688
-21.5311
-20.5424
-17.5929
-12.4453
-6.74763
-1.06515
2.50853
4.02428
7.8547
8.28685
6.65525
-12.4106
-9.97925
-3.65228
6.86617
11.0164
13.4181
13.0095
9.55998
3.82182
-1.92461
-4.48711
-7.80908
-17.816
-21.5562
-22.6668
-21.4926
-18.279
-12.7156
-6.55764
-0.55148
2.94717
4.73296
8.98699
9.0401
6.61086
-15.0391
-11.6653
-7.16967
5.2717
11.5479
14.6591
14.5748
11.0727
4.95684
-1.32732
-4.31138
-7.67989
-18.4007
-22.6557
-23.8847
-22.5652
-18.9972
-12.9567
-6.30596
0.0317968
3.36128
5.63773
10.305
9.96254
6.55966
-17.5989
-13.1793
-9.84609
1.59119
11.6778
15.6349
16.0425
12.6254
6.20985
-0.605699
-4.09794
-7.45003
-18.925
-23.8023
-25.1996
-23.758
-19.7697
-13.2073
-6.02007
0.593501
3.65718
6.91885
11.7507
10.834
6.65008
-20.4276
-15.0988
-11.9278
-4.09641
12.0611
16.2812
17.2635
14.0638
7.42538
0.148987
-3.89098
-7.22245
-19.4804
-25.0276
-26.6124
-25.0537
-20.6098
-13.5214
-5.74064
1.15673
3.98149
8.32944
13.2345
11.6892
6.84669
-23.1647
-18.1226
-13.4945
-7.63761
9.44339
16.2534
18.0752
15.2224
8.447
0.646531
-3.53298
-7.12915
-20.1409
-26.3433
-28.0985
-26.414
-21.5127
-13.8494
-5.50872
1.35021
4.59353
9.94655
14.6582
12.5523
7.10215
-25.6262
-20.7146
-14.9557
-10.5205
5.42822
15.4471
18.3308
15.9444
9.13339
0.986402
-3.42128
-7.19921
-20.9895
-27.7281
-29.5986
-27.7711
-22.4371
-14.1274
-5.37178
1.27642
5.27741
11.7545
15.8734
13.4058
7.3741
-27.7642
-23.3549
-16.6536
-12.7059
-1.26277
15.5526
18.0382
16.1052
9.34621
1.10166
-3.67119
-7.47537
-22.0521
-29.1152
-31.0126
-29.0229
-23.2983
-14.4457
-5.37256
0.912658
5.86724
13.6759
16.7909
14.2063
7.62921
-29.4561
-25.6984
-18.5268
-14.5987
-6.17474
13.0491
17.0463
15.6143
8.96786
0.616404
-3.86599
-8.11523
-23.2619
-30.3889
-32.2022
-30.035
-23.9763
-14.7378
-5.45841
0.217531
6.23661
16.0483
16.8872
14.8994
7.89914
-30.6344
-27.5746
-21.6947
-15.2679
-9.87473
8.73575
15.1573
14.412
7.95007
-0.320649
-4.23338
-9.07163
-24.5327
-31.3968
-33.006
-30.6496
-24.334
-14.8733
-5.68213
-0.657055
6.97025
17.3729
16.8476
15.427
8.19062
-31.2757
-28.9366
-23.3768
-16.7499
-12.3058
3.52403
12.5752
12.5239
6.31272
-1.78503
-4.70709
-10.1755
-25.7064
-31.9676
-33.2664
-30.7195
-24.2979
-14.683
-5.49402
-1.92245
7.81107
17.2288
16.9531
15.7006
8.37096
-31.3811
-29.7717
-25.1167
-18.1238
-14.119
-3.78395
11.2213
10.1686
4.14981
-3.15427
-5.82387
-11.3411
-26.6041
-31.948
-32.8856
-30.2313
-23.7324
-14.0105
-5.73496
-2.46774
7.76256
16.7453
16.6438
15.6133
8.39484
-30.9883
-30.0752
-26.3199
-20.536
-14.8724
-8.58971
7.33502
7.36957
1.6366
-4.59407
-7.0638
-12.5493
-27.0383
-31.2683
-31.8989
-29.1391
-22.2008
-12.5789
-5.93002
-2.77975
7.40425
15.8126
15.8642
15.1732
8.236
-30.2377
-29.8978
-26.9439
-21.8789
-15.8616
-11.5061
2.39925
4.13151
-1.05273
-5.96636
-8.27947
-13.7513
-26.8565
-29.9744
-30.3392
-26.8465
-19.6368
-11.0448
-5.79359
-2.85263
6.78436
14.3007
14.5426
14.2848
7.84815
-28.9565
-29.2872
-27.2862
-23.0297
-17.0518
-13.5081
-2.9307
0.364851
-3.9099
-7.45988
-9.47011
-15.1576
-25.8608
-28.0081
-27.44
-23.4298
-16.028
-8.38103
-5.65783
-2.35485
5.70822
12.142
12.5774
12.8116
7.15022
-27.2512
-28.0046
-26.8399
-23.7828
-19.0218
-14.0506
-9.08785
-2.62478
-6.80615
-8.34032
-10.8604
-17.1693
-23.2722
-24.8325
-23.2957
-18.0387
-10.9491
-6.05102
-3.80783
-1.43415
4.33638
9.38211
9.9277
10.5891
6.0273
-25.372
-26.353
-25.7532
-23.5779
-20.0661
-15.0419
-11.7645
-6.73502
-8.81869
-9.75764
-11.8344
-17.4034
-20.8094
-20.9876
-17.7329
-11.7598
-5.80441
-3.45611
-0.972046
-0.0423939
3.00223
6.46866
6.98931
7.85816
4.62005
-23.4837
-24.4976
-24.2443
-22.7449
-20.1607
-16.647
-12.283
-10.3238
-10.3058
-10.9259
-12.4811
-16.4997
-17.8493
-16.1313
-11.5289
-5.60347
-2.00774
1.87009
1.5178
1.09634
1.96591
3.62448
3.9772
4.71244
3.08313
-21.7156
-22.6112
-22.52
-21.493
-19.6684
-16.8388
-13.7084
-11.8815
-11.3375
-11.4064
-12.6632
-14.6583
-14.2797
-10.8718
-5.4577
-1.62301
4.76275
5.89001
4.17877
2.22787
0.987376
0.996762
1.03562
1.44003
1.46322
-20.1511
-20.8305
-20.7607
-20.0273
-18.7047
-16.5208
-14.189
-12.694
-11.8575
-11.4705
-11.9255
-12.1956
-10.1906
-5.45179
-1.89447
4.35641
10.3042
9.56637
6.51464
3.01899
0.11286
-1.29565
-1.80775
-1.36549
-0.317719
-18.83
-19.2422
-19.1044
-18.5148
-17.4971
-15.8462
-14.0754
-12.7488
-11.7672
-11.0488
-10.5796
-9.33934
-5.64162
-2.57174
2.83194
11.1887
13.491
12.2181
8.03843
3.24908
-0.827015
-3.14079
-4.46373
-3.65707
-2.02805
-17.7543
-17.8867
-17.6339
-17.0801
-16.234
-14.9679
-13.5795
-12.3629
-11.2517
-10.1734
-8.80317
-6.32912
-3.15253
1.09705
9.23652
14.2989
15.7061
13.4937
8.35917
2.71305
-2.17894
-4.23835
-7.30325
-5.73568
-3.02927
-16.8902
-16.7523
-16.3685
-15.7949
-15.0388
-14.0232
-12.8701
-11.6937
-10.4351
-8.95071
-6.86682
-3.90184
-1.08282
6.38578
12.4947
16.1352
16.2184
12.9926
7.17658
1.04769
-3.22969
-5.7058
-9.59475
-7.14681
-3.753
-16.1711
-15.8025
-15.2909
-14.677
-13.965
-13.0993
-12.0666
-10.8455
-9.39184
-7.44594
-4.84786
-2.86366
1.96369
10.2857
14.3364
16.2815
14.6608
9.8395
4.09897
-1.1138
-4.15758
-7.71741
-10.984
-7.95899
-4.01484
-15.6171
-15.1169
-14.5241
-13.872
-13.164
-12.3435
-11.3152
-9.9573
-8.13777
-5.72126
-4.12723
-0.998786
6.08054
11.4597
14.5997
14.2256
10.2131
5.52991
0.129403
-4.03324
-5.66405
-10.3258
-11.4168
-8.01588
-3.94217
-14.9319
-14.3199
-13.6694
-13.0091
-12.3227
-11.52
-10.4275
-8.89157
-6.8482
-4.95876
-2.81505
1.8071
8.00967
11.8374
12.9149
9.73553
4.64214
-0.807341
-5.47247
-6.8474
-8.51507
-12.1653
-11.6106
-7.26094
-3.75064
-13.9866
-13.3309
-12.6789
-12.0405
-11.4003
-10.5918
-9.36292
-7.54363
-5.54935
-4.06856
-0.9691
4.57934
8.58421
10.7213
8.78442
3.88351
-3.22925
-8.58978
-10.8973
-10.9488
-12.0582
-13.0042
-11.1779
-6.95467
-2.86434
-12.6169
-12.0302
-11.3925
-10.8211
-10.2452
-9.33575
-7.93161
-6.03534
-4.73062
-2.07366
1.80939
5.67644
8.24548
7.81422
3.34145
-5.36179
-10.2384
-17.0878
-16.6698
-14.9304
-14.7855
-13.4796
-10.7338
-7.0265
-1.47886
-10.5739
-10.2167
-9.60065
-9.04076
-8.57879
-7.5815
-6.15368
-4.85124
-2.35354
0.426889
3.66265
6.24849
6.4674
2.70421
-5.27766
-12.1201
-21.3176
-24.0989
-21.22
-18.1931
-16.6083
-13.3244
-10.8381
-6.93775
0.396022
-7.72744
-7.78816
-7.20775
-6.72027
-6.03703
-5.50814
-4.26271
-2.20035
0.0400258
2.72646
5.05463
5.69477
2.8197
-4.48751
-12.2278
-18.9136
-31.3265
-28.4271
-24.1568
-20.2637
-17.4636
-13.8585
-10.4524
-6.26141
1.52213
-4.26787
-4.49585
-4.30449
-3.99611
-3.56921
-2.99708
-1.69632
0.20909
2.5045
4.64405
5.58349
3.64175
-2.5821
-10.9816
-16.0459
-30.2167
-33.8029
-30.0437
-25.6379
-21.2598
-17.8594
-14.5804
-9.89953
-5.37614
2.2961
-0.881592
-1.51443
-1.24419
-1.12423
-1.05673
-0.620087
0.796053
2.69342
4.62888
5.90709
4.93743
0.0643307
-8.2773
-14.1209
-21.0733
-35.7687
-34.5061
-30.081
-25.9535
-21.3753
-18.0071
-15.0848
-9.1781
-4.56823
2.78224
1.9398
1.15188
1.19596
1.18049
1.19968
1.81597
3.1241
4.70967
6.14496
6.24983
3.00943
-4.33303
-12.1703
-15.8844
-27.2702
-35.2832
-33.0403
-29.1754
-25.4751
-21.0122
-17.835
-15.1607
-8.42928
-3.87293
3.09094
3.77043
3.37453
3.58164
3.40892
3.30098
3.77753
4.85724
6.07194
6.80858
5.53212
0.202938
-8.19652
-13.793
-17.1866
-30.0521
-32.4705
-30.8716
-27.7261
-24.5722
-20.3482
-17.3913
-14.6433
-7.75714
-3.28803
3.2507
5.46918
5.40803
5.39143
4.90609
4.69427
5.1054
5.89164
6.60622
6.4797
3.90641
-2.51586
-10.4146
-14.2928
-17.3956
-28.5878
-29.3944
-28.474
-25.9698
-23.4079
-19.4694
-16.7043
-13.6172
-7.17073
-2.77239
3.31599
6.4052
6.33791
6.27933
5.70799
5.40629
5.64825
6.08899
6.23249
5.25944
1.94734
-4.13498
-10.5288
-13.8163
-16.2628
-24.7931
-26.272
-25.9049
-24.0268
-22.0113
-18.3554
-15.5636
-12.3495
-6.58086
-2.32345
3.3262
6.57141
6.54794
6.38101
5.73179
5.27528
5.29547
5.41071
5.0748
3.63663
0.523791
-4.15078
-8.90263
-12.3348
-14.1434
-19.3081
-23.8359
-23.248
-21.8926
-20.3359
-17.0241
-14.3606
-10.8122
-5.91831
-1.9396
3.27592
5.93787
5.87226
5.57548
4.8199
4.18754
4.05084
4.04236
3.61463
2.43656
0.388574
-2.60798
-6.14639
-9.64434
-11.6595
-14.712
-20.4126
-20.408
-19.4715
-18.2892
-15.3892
-12.9432
-9.11736
-5.15041
-1.56584
3.12003
4.41944
3.94587
3.62898
2.91924
2.22866
2.22729
2.5755
2.69402
2.46529
1.78714
0.103627
-2.73541
-6.14518
-8.53482
-10.636
-16.3193
-17.0964
-16.5608
-15.7993
-13.3519
-11.2194
-7.44803
-4.23331
-1.07688
2.77681
1.52014
0.71688
0.394045
0.24023
-0.0348861
0.681823
1.99311
3.15525
4.06529
4.45011
3.50051
0.99809
-2.32059
-4.78233
-6.39913
-11.6983
-13.0663
-12.9668
-12.6312
-10.8135
-9.0827
-6.1777
-3.05208
-0.129963
1.98093
-2.15776
-3.31791
-2.68996
-2.16557
-1.2763
0.747781
3.22375
5.34549
7.0122
7.87392
7.17589
4.89013
1.92828
-0.108692
-1.50481
-6.46645
-8.14063
-8.50309
-8.65727
-7.75539
-6.6125
-4.69646
-2.12434
-0.147653
1.6746
-5.31682
-4.22419
-2.73885
-1.55366
0.202987
3.39575
6.54535
8.99671
10.7492
11.4867
10.7731
8.81878
6.60031
5.192
3.74494
-0.605269
-2.8354
-3.59328
-4.39294
-4.5534
-4.26668
-3.43473
-1.46133
-0.276017
1.45735
-3.7398
-0.923365
2.09197
3.32646
4.99251
8.78252
11.4368
13.1008
14.037
14.0231
13.117
11.665
10.2769
8.74059
6.87289
3.70637
0.911837
-0.15333
-1.70407
-2.45567
-3.02149
-2.57855
-1.29226
-0.101934
0.972636
0.626148
1.48131
2.13422
2.86278
3.8937
5.21616
5.84861
6.41348
6.42674
6.24211
5.94529
5.57528
5.11275
4.66944
3.82106
3.0896
2.10007
1.30254
0.222904
-0.416068
-1.04126
-1.06965
-0.759234
-0.430251
0.165866
)
;

boundaryField
{
    inlet
    {
        type            calculated;
        value           uniform 0;
    }
    outlet
    {
        type            calculated;
        value           nonuniform List<scalar> 
57
(
-2.61963
-0.919768
2.48521
4.29679
5.25737
5.58572
5.91239
6.2045
6.54937
6.82653
6.84467
6.78873
6.71782
6.65525
6.61086
6.55966
6.65008
6.84669
7.10215
7.3741
7.62921
7.89914
8.19062
8.37096
8.39484
8.236
7.84815
7.15022
6.0273
4.62005
3.08313
1.46322
-0.317719
-2.02805
-3.02927
-3.753
-4.01484
-3.94217
-3.75064
-2.86434
-1.47886
0.396022
1.52213
2.2961
2.78224
3.09094
3.2507
3.31599
3.3262
3.27592
3.12003
2.77681
1.98093
1.6746
1.45735
0.972636
0.165866
)
;
    }
    upperWall
    {
        type            calculated;
        value           nonuniform List<scalar> 
223
(
3.67772e-05
-7.97593e-05
-8.38227e-05
-0.00223737
-0.00359644
-0.0102819
-0.0132896
-0.0263138
-0.0294339
-0.0502629
-0.0588492
-0.0626809
-0.0891868
-0.0875457
-0.143665
-0.124818
-0.129975
-0.17228
-0.183262
-0.186823
-0.197233
-0.207943
-0.221379
-0.231486
-0.244
-0.254135
-0.266694
-0.27799
-0.290327
-0.302741
-0.313881
-0.327371
-0.337172
-0.352282
-0.361142
-0.379024
-0.3882
-0.409965
-0.42051
-0.446179
-0.459919
-0.490101
-0.509603
-0.544796
-0.573097
-0.613791
-0.654488
-0.701253
-0.757906
-0.811449
-0.887243
-0.948685
-1.046
-1.11711
-1.23705
-1.32035
-1.46216
-1.56076
-1.72148
-1.83862
-2.0128
-2.15105
-2.33068
-2.49014
-2.66609
-2.8403
-3.00241
-3.17876
-3.31031
-3.47534
-3.55964
-3.68722
-3.70269
-3.76429
-3.68431
-3.65247
-3.4325
-3.28415
-2.84535
-2.56293
-1.78654
-1.34042
-0.101307
0.646874
2.32683
3.9181
5.59155
9.3863
10.0579
18.1683
17.8734
30.0246
37.6708
40.44
92.6311
82.9614
18.9627
-19.3693
-24.2359
-19.7804
-1.48771
-1.97905
14.3286
15.1745
4.12299
0.744633
4.1584
3.65423
1.56736
2.26928
3.1308
2.58483
1.89334
1.92117
2.2143
2.32651
2.16485
2.08861
1.90124
1.48709
1.10435
0.760814
0.444502
0.192896
-0.00496661
-0.127454
-0.172012
-0.167661
-0.138393
-0.0965638
-0.0602136
-0.0416192
0.0885256
0.265354
0.354011
0.208165
-0.665113
-3.89684
-7.72974
-12.6963
-17.6858
-21.6119
-23.8724
-24.4059
-23.3624
-20.9958
-17.5587
-13.279
-8.29539
-3.10326
2.6448
9.17359
11.8196
17.8288
22.3933
26.7057
30.2993
32.8322
35.1548
35.9597
35.4836
33.7472
30.8723
27.1095
22.7557
18.2525
13.9831
10.1946
7.12055
3.01156
2.70988
2.39476
2.03358
1.62113
1.13843
0.565608
-0.108995
-0.888927
-1.75968
-2.7066
-3.70391
-4.71363
-5.65473
-6.46805
-7.08791
-7.47353
-7.57742
-7.40461
-6.90267
-5.98679
-4.86169
-3.99464
-2.79636
-1.43461
-0.51578
0.507416
0.915973
0.677683
0.626148
1.48131
2.13422
2.86278
3.8937
5.21616
5.84861
6.41348
6.42674
6.24211
5.94529
5.57528
5.11275
4.66944
3.82106
3.0896
2.10007
1.30254
0.222904
-0.416068
-1.04126
-1.06965
-0.759234
-0.430251
0.165866
)
;
    }
    lowerWall
    {
        type            calculated;
        value           nonuniform List<scalar> 
250
(
-0.000895842
0.00141949
-0.000217905
0.00781075
0.0101599
0.0371853
0.0468872
-0.0133619
0.188035
0.100211
0.176212
0.191817
0.26877
0.265888
0.322733
0.533252
0.331403
0.632084
0.013834
0.0837135
0.169904
0.12847
-0.347919
-1.77229
0.388388
7.48391
16.3588
23.7481
28.9915
32.887
37.5522
42.0457
44.5261
45.7189
45.0481
41.3556
42.3764
38.1744
31.9522
28.293
22.6497
18.1997
12.0257
3.57049
1.621
0.013834
0.023794
0.0558657
0.200976
0.540737
0.987074
1.51175
2.15119
2.81836
3.45891
3.97049
4.30737
4.46765
4.48434
4.39925
4.11936
4.0085
3.40391
3.22452
2.90379
2.52996
2.12447
1.68693
1.21056
0.696347
0.160986
-0.34536
-0.784258
-1.0797
-1.24152
-1.29595
-1.13635
-1.28362
-1.55549
-1.90368
-3.56946
-7.71703
-2.07028
-4.57256
-12.1591
-53.2436
-53.8856
-42.6267
-37.6469
-33.7792
-31.0491
-28.6539
-26.7103
-24.8812
-23.2747
-21.7054
-20.2376
-18.7868
-17.366
-15.9601
-14.5324
-13.1248
-11.6805
-10.2654
-8.80055
-7.36442
-5.89888
-4.47709
-2.99912
-1.56851
-0.160857
1.2222
2.591
3.90206
5.16044
6.33914
7.54037
8.65946
9.62962
10.4401
11.1202
11.7865
12.6927
13.3152
14.0083
14.3105
14.6652
15.6834
17.0031
16.3732
16.2401
16.8415
16.8804
17.0877
17.3644
17.5663
17.7527
17.8874
18.0155
18.1736
18.3999
18.7584
19.2287
19.734
20.1788
20.649
21.3365
22.235
23.058
23.1953
24.297
25.1134
26.1106
27.2689
28.687
29.4494
30.257
30.7437
30.6979
29.6252
24.5366
18.2473
17.4375
17.2736
17.2766
16.7111
16.4405
15.776
15.0324
14.3355
13.6022
12.9776
12.3409
11.679
11.0454
10.4656
9.92064
9.33733
8.79116
8.20582
7.69378
7.15719
6.59566
6.1465
5.72536
5.37736
5.06578
4.83878
4.7074
4.69173
4.75039
4.93086
5.26622
5.59379
5.9719
6.57157
7.17256
7.84886
8.86511
9.95471
11.1836
13.2756
16.3497
19.1409
20.108
18.9101
16.1287
12.4801
8.77411
5.68828
3.47376
1.97846
0.872141
-0.145693
-1.18517
-2.13528
-2.86018
-3.42361
-3.715
-4.4423
-5.28623
-6.28328
-5.96727
-5.74831
-5.26978
-3.86972
-3.13012
-1.31671
-0.791991
-0.647608
-0.500481
-0.392532
-0.306904
-0.371341
-0.379393
-0.481729
-0.612669
-1.08526
-1.53481
-2.19261
-2.70162
-3.23793
-3.60674
-3.77013
-3.80957
-3.75672
-3.60089
-3.17225
-2.86646
-2.61963
)
;
    }
    frontAndBack
    {
        type            empty;
    }
}


// ************************************************************************* //
