/*--------------------------------*- C++ -*----------------------------------*\
| =========                 |                                                 |
| \\      /  F ield         | OpenFOAM: The Open Source CFD Toolbox           |
|  \\    /   O peration     | Version:  2112                                  |
|   \\  /    A nd           | Website:  www.openfoam.com                      |
|    \\/     M anipulation  |                                                 |
\*---------------------------------------------------------------------------*/
FoamFile
{
    version     2.0;
    format      ascii;
    arch        "LSB;label=32;scalar=64";
    class       volScalarField;
    location    "0.05";
    object      ddt0(k);
}
// * * * * * * * * * * * * * * * * * * * * * * * * * * * * * * * * * * * * * //

dimensions      [0 2 -3 0 0 0 0];

internalField   nonuniform List<scalar> 
12225
(
-0.000971454
0.0013645
0.000248539
0.00684857
0.0109627
0.0374431
0.0475185
-0.0159645
0.177589
0.111333
0.172573
0.189007
0.263336
0.279677
0.353655
0.477856
0.271577
0.685645
-0.00205721
0.00851793
-0.0101641
-0.0151257
0.00371706
0.207955
-0.70277
0.348674
0.71816
-0.777236
-0.112633
-0.0399247
-0.263889
0.447042
-0.239777
-0.55515
0.592187
0.39206
-0.000299198
0.000984177
0.00413489
-0.000907278
0.0258011
-0.0588441
0.0276894
-0.0231232
0.0290881
0.021415
-0.111708
0.127501
-0.0285678
-0.0440259
-0.0796229
0.43872
-0.249675
-0.574311
-4.90188e-05
0.000423348
0.00248114
0.00280071
0.0107431
-0.0299492
0.0404554
-0.0313475
0.0257243
0.0196487
-0.034388
0.0629163
-2.36569e-05
-0.0106673
0.0537644
0.0976337
-0.141813
-0.05278
2.02878e-05
0.000405942
0.0016726
0.00305833
0.00514913
-0.0091779
0.0189347
-0.00911643
0.0152537
0.0116124
-0.00257352
0.026575
0.0103497
0.00573005
0.0390039
0.0306626
-0.050026
0.0322525
3.03334e-05
0.000429927
0.00141114
0.00292317
0.00376868
-0.000736276
0.0103152
0.00132662
0.0109186
0.0102197
0.00731762
0.0167344
0.0133258
0.011748
0.0272349
0.028827
-0.0358413
0.0407763
1.47684e-05
0.000435199
0.00133716
0.0028389
0.0036366
0.00278465
0.00771789
0.00565208
0.00992244
0.010626
0.0108689
0.0147287
0.0147264
0.0148758
0.0232887
0.0218279
-0.00451404
0.033441
-1.29404e-05
0.000412611
0.00130773
0.00279706
0.00380515
0.00438939
0.00718391
0.00757218
0.0100588
0.0113374
0.0125128
0.014744
0.0157155
0.0168646
0.0211448
0.0190052
0.0147929
0.0281938
-4.01289e-05
0.000354859
0.0012609
0.00273915
0.00396263
0.00515458
0.00722597
0.00849032
0.0104146
0.0119223
0.0133816
0.0151046
0.016386
0.017789
0.0199714
0.019488
0.0204404
0.0250673
-8.40418e-05
0.000246514
0.0011795
0.00260836
0.00399974
0.00546743
0.00730779
0.00888528
0.0106408
0.0122266
0.0137489
0.0152754
0.0165963
0.0179002
0.0192282
0.0196696
0.0208906
0.0226633
-0.000172583
0.000126899
0.00104493
0.00240759
0.0038807
0.00546789
0.00723094
0.00890678
0.0105965
0.0121772
0.0136618
0.0150466
0.0162602
0.0173404
0.0182407
0.0187786
0.0194399
0.0199727
-0.000225242
-1.5581e-05
0.000839651
0.00213405
0.00361604
0.00522885
0.00694566
0.00862125
0.0102525
0.0117732
0.0131629
0.0143949
0.0154259
0.0162433
0.0168031
0.0170601
0.0171346
0.0168676
-0.000255132
-0.000158359
0.000590699
0.00179074
0.00323181
0.00481722
0.00647722
0.00810789
0.00966442
0.0110926
0.0123542
0.0134104
0.0142202
0.0147499
0.0149594
0.0148179
0.0143283
0.013368
-0.00026654
-0.000299299
0.000284456
0.00132913
0.00265413
0.00413806
0.00568697
0.00720598
0.00862921
0.00989792
0.0109611
0.01177
0.0122778
0.0124408
0.0122165
0.0115678
0.0104628
0.00879482
-0.00025775
-0.000409448
-3.81783e-05
0.00077068
0.00187371
0.00314655
0.00448019
0.0057797
0.00696511
0.00796853
0.00872852
0.00918825
0.00929524
0.00900126
0.00826332
0.007045
0.00531667
0.0030078
-0.00022759
-0.000458781
-0.000313528
0.00018565
0.000944749
0.00185836
0.00282365
0.00374304
0.00453406
0.00512313
0.00544207
0.005431
0.00503694
0.00421495
0.00293058
0.00116427
-0.00108261
-0.00380788
-0.000175195
-0.000425601
-0.000476563
-0.000322309
-1.0254e-05
0.00039072
0.000803273
0.00114952
0.00135591
0.00135019
0.00107726
0.000482312
-0.000477984
-0.00183427
-0.00359957
-0.00575985
-0.00825958
-0.0109966
-0.000100634
-0.000307083
-0.000498799
-0.000678752
-0.000864596
-0.00108412
-0.00137258
-0.00176981
-0.002318
-0.00305478
-0.00402057
-0.00524367
-0.00674434
-0.00852792
-0.0105769
-0.012837
-0.0151914
-0.0174376
-7.9225e-06
-0.00013072
-0.00042785
-0.000923235
-0.00161104
-0.00247596
-0.00350238
-0.00467853
-0.00599793
-0.00745814
-0.00905787
-0.0107938
-0.0126575
-0.0146269
-0.016658
-0.0186687
-0.020512
-0.0219181
7.03208e-05
-9.6552e-06
-0.00043128
-0.00120104
-0.00226931
-0.00357753
-0.00507022
-0.00670055
-0.00843168
-0.0102354
-0.0120899
-0.0139755
-0.0158678
-0.0177354
-0.019532
-0.0211796
-0.0225377
-0.0233422
0.000116077
1.06158e-05
-0.000548936
-0.0015119
-0.00278585
-0.00428934
-0.00595445
-0.00772478
-0.00955597
-0.0114136
-0.0132698
-0.0150994
-0.0168768
-0.0185728
-0.0201486
-0.0215441
-0.0226497
-0.0232369
0.00013511
-4.35453e-05
-0.000725452
-0.00178943
-0.00312169
-0.004646
-0.00629826
-0.00802614
-0.00978725
-0.0115489
-0.0132834
-0.0149668
-0.0165749
-0.0180838
-0.0194657
-0.0206813
-0.0216597
-0.0222329
0.000127792
-0.000132104
-0.000876655
-0.00193603
-0.00320434
-0.004628
-0.0061505
-0.0077288
-0.00932338
-0.0109073
-0.012455
-0.013947
-0.0153608
-0.0166767
-0.0178797
-0.0189464
-0.0198374
-0.0204655
9.41713e-05
-0.000201975
-0.000934906
-0.00190847
-0.00303026
-0.00428423
-0.00560867
-0.00698103
-0.00835657
-0.00972256
-0.0110497
-0.0123351
-0.0135493
-0.0146696
-0.0157044
-0.0166473
-0.0174493
-0.0181045
2.82096e-05
-0.000201475
-0.000876199
-0.00172059
-0.00264118
-0.00369803
-0.00477908
-0.00592868
-0.00705876
-0.00820544
-0.00929723
-0.0104003
-0.0114465
-0.0123817
-0.0132521
-0.0141622
-0.0149287
-0.0155128
8.30306e-06
-0.000206698
-0.000719754
-0.00142069
-0.00208298
-0.00296528
-0.00375217
-0.00472271
-0.0055943
-0.006598
-0.00743739
-0.00847927
-0.00943986
-0.0103173
-0.0109139
-0.0119627
-0.0131791
-0.013454
6.56073e-06
-0.000166367
-0.000505705
-0.00107188
-0.00136802
-0.00220314
-0.00257799
-0.00355679
-0.00413003
-0.00527525
-0.00573603
-0.00724221
-0.00784436
-0.00904709
-0.0108036
-0.00851164
-0.0143631
-0.0136884
2.42867e-05
-0.000109074
-0.000195303
-0.00065812
-0.000345455
-0.00131503
-0.000749473
-0.00192241
-0.00160165
-0.0031181
-0.00178504
-0.0057106
-0.00468708
0.0204234
-0.0595527
0.036229
-0.00083088
-0.020092
0.000169199
-0.000268683
0.00101211
0.00160541
0.0026925
0.00438277
0.00808157
0.00935157
0.0135466
0.0152742
0.0203834
0.0205732
0.0286578
0.208193
-0.541095
-1.20246
1.9753
-0.039798
3.99957e-05
-8.54576e-05
-8.55652e-05
-0.00222885
-0.00360942
-0.0102685
-0.0133192
-0.026312
-0.0294149
-0.050284
-0.0603834
-0.0535405
-0.0968907
-0.0886068
-0.144456
-0.120575
-0.134961
-0.171919
0.0138339
0.0237939
0.0558654
0.200975
0.540734
0.98707
1.51174
2.15119
2.81835
3.4589
3.97048
4.30736
4.46763
4.48433
4.39923
4.11935
4.00848
3.40389
3.2245
2.90377
2.52994
2.12445
1.68691
1.21054
0.696325
0.160965
-0.345381
-0.784277
-1.07971
-1.24153
-1.29596
-1.13635
-1.28363
-1.55549
-1.90369
-3.56949
-7.71699
-2.07039
-4.5727
-12.1594
-53.2442
-53.8854
-42.6268
-37.6472
-33.7796
-31.0495
-28.6543
-26.7108
-24.8817
-23.2752
-21.7059
-20.2382
-18.7873
-17.3664
-15.9606
-14.5328
-13.1251
-11.6808
-10.2656
-8.80067
-7.36447
-5.89886
-4.47699
-2.99895
-1.56827
-0.160538
1.22259
2.59146
3.90258
5.16103
6.33979
7.54108
8.66022
9.63042
10.441
11.121
11.7874
12.6936
13.3161
14.0092
14.3112
14.6657
15.6838
17.0033
16.3737
16.242
16.8464
16.8904
17.104
17.3846
17.5811
17.7484
17.8638
18.0025
18.1905
18.4137
18.7572
19.2294
19.7349
20.1785
20.6517
21.3378
22.2376
23.061
23.197
24.2993
25.116
26.1131
27.2713
28.6893
29.4517
30.259
30.7456
30.6997
29.6272
24.5377
18.2504
17.4378
17.2717
17.274
16.7089
16.439
15.775
15.0315
14.3346
13.6014
12.9767
12.3401
11.6782
11.0447
10.465
9.9202
9.33702
8.79098
8.20578
7.69385
7.15735
6.5959
6.14677
5.72564
5.37763
5.066
4.83895
4.70751
4.69176
4.75035
4.93076
5.26609
5.59365
5.97178
6.5715
7.17257
7.84893
8.86523
9.95487
11.1838
13.2758
16.3497
19.1409
20.1079
18.9101
16.1286
12.48
8.77409
5.68827
3.47374
1.97845
0.872146
-0.145679
-1.18515
-2.13527
-2.86017
-3.42361
-3.715
-4.44228
-5.2862
-6.28326
-5.96725
-5.7483
-5.26977
0.0837132
-0.00102598
0.248311
0.706751
1.50063
2.50799
3.65568
5.23858
6.85549
8.19382
8.94278
9.00118
8.60286
7.8831
7.06224
5.71424
5.21044
4.30585
3.47683
2.67456
1.95756
1.27893
0.63528
0.000953903
-0.651957
-1.31052
-1.90278
-2.40738
-2.61609
-2.71742
-2.46854
-2.74087
-3.35281
-4.63738
-7.4305
-13.6654
-25.8195
-49.7198
-23.783
-10.5888
-38.7365
-32.6938
-31.4946
-32.7329
-31.4824
-30.6935
-29.442
-29.4022
-28.4236
-28.2901
-27.3601
-26.9272
-26.0134
-25.3224
-24.4083
-23.5373
-22.6076
-21.6372
-20.6449
-19.5356
-18.4123
-17.2756
-16.2434
-14.4652
-12.9357
-11.3195
-9.62024
-7.90012
-6.16026
-4.4647
-2.65367
-0.702228
1.03023
2.57416
4.15761
5.85727
7.64364
8.24455
9.59451
10.6057
11.453
12.3232
13.0626
13.7161
14.1885
14.5041
14.761
14.9026
14.9886
14.9971
14.8587
14.5344
14.0601
13.6746
13.2286
12.7594
12.4146
12.2785
12.3033
12.3927
12.6821
13.8111
14.5034
18.5853
19.083
21.7103
24.1518
27.149
30.2224
33.1672
37.0641
40.5682
43.9074
46.8572
49.2159
50.6877
51.3457
51.9432
51.9625
51.6016
51.1333
49.692
48.3698
46.8878
45.5593
44.0752
42.6401
41.001
39.4008
37.9461
36.4719
35.1338
33.6722
32.2852
31.0741
29.7092
28.7535
27.6151
26.6535
25.7576
24.7212
23.8836
23.0612
22.2858
21.5932
20.9638
20.2631
19.6074
18.97
17.8037
17.03
16.7424
15.7186
14.9738
15.0306
14.3846
12.9291
12.4938
13.8968
12.6319
8.47919
6.64517
7.03505
7.13671
7.20052
8.29993
10.2943
12.5817
13.7688
13.033
10.6258
7.80101
4.67484
2.59384
-0.145976
-1.54538
-2.85514
-3.21889
-3.35363
-3.46478
0.169903
-0.213465
-0.697786
-1.88949
-2.11145
-1.53671
-0.123163
1.68947
3.24798
4.17236
4.27404
3.93664
3.32361
2.53839
1.47925
1.03811
0.109628
-0.454154
-0.917606
-1.30555
-1.6617
-2.00256
-2.35021
-2.72599
-3.16298
-3.67109
-4.19349
-4.65722
-4.94615
-5.07212
-5.08014
-7.29587
-10.2702
-19.3066
-47.4391
-51.8793
-15.9233
-8.13919
-11.4498
-32.5851
-37.2484
-42.5475
-42.6302
-45.6879
-44.6484
-47.3922
-46.101
-45.8385
-43.4465
-41.412
-38.6216
-35.9813
-33.2294
-30.5833
-28.0377
-25.579
-23.2593
-21.0065
-18.8747
-16.8569
-14.9383
-13.0137
-11.0503
-9.60867
-8.02794
-6.52296
-5.02441
-3.47531
-1.86807
-0.290142
1.35545
3.0326
4.6712
6.2995
7.94588
9.67237
11.3399
12.8931
14.4038
15.8744
17.1467
18.3781
19.4724
20.4485
21.2765
21.9453
22.4698
22.8535
23.1057
23.2372
23.2445
23.0556
22.3477
21.7166
20.9272
20.0658
19.0525
17.8768
17.2879
17.006
17.0207
17.8767
18.5796
20.9083
22.454
25.4098
27.4653
30.0628
33.055
36.4547
39.3738
42.3622
45.2013
47.8169
50.1046
51.9325
54.7995
56.0428
56.5676
56.7312
56.6475
56.1791
55.3693
54.1832
53.1683
51.7018
50.1813
48.2917
46.6057
44.7607
43.0053
41.3965
39.7894
38.2413
36.8484
35.4955
34.2861
33.0793
31.9372
30.8606
29.7446
28.6756
27.5778
26.4654
25.5686
24.601
23.4912
22.9461
22.4778
21.6911
21.1411
20.6986
19.876
18.7633
18.276
18.0503
16.7567
16.3169
16.7422
16.1292
14.4046
13.016
11.4138
9.80545
8.34196
7.26683
6.79257
6.67767
5.76572
3.81046
1.23366
-1.55678
-4.17676
-5.35017
-6.96729
-8.28711
-7.89879
-7.50222
-5.69511
-5.01745
0.12847
-0.780706
-2.50305
-5.02343
-5.39666
-4.32253
-2.52767
-0.82633
0.195894
0.302311
-0.150975
-0.90039
-1.76617
-2.66568
-3.64767
-4.07179
-4.68614
-5.48261
-5.67974
-5.80362
-5.86818
-5.91189
-6.00709
-6.15728
-6.36552
-6.62021
-6.90858
-7.18644
-7.45558
-7.93076
-10.5452
-15.7359
-34.0525
-65.438
-39.9354
-2.33771
-6.5381
-14.2041
-31.0475
-46.5382
-51.8278
-56.6462
-57.4758
-58.8821
-56.6526
-55.3424
-51.5305
-48.072
-43.8718
-39.788
-35.7555
-31.9052
-28.3219
-24.9804
-21.9298
-19.1208
-16.5535
-14.1833
-12.0459
-10.1359
-8.37179
-6.71489
-5.17517
-3.70177
-2.24132
-0.810256
0.6511
2.17009
3.75783
5.41601
7.15612
8.96741
10.8365
12.754
14.6996
16.7006
18.6751
20.6858
22.7032
24.7352
26.1736
27.699
29.1078
30.4202
31.5816
32.5649
33.3899
34.0427
34.3825
34.4222
34.5444
34.7325
34.2392
33.6062
33.1323
32.8122
32.2531
32.2634
31.8835
31.6709
31.336
31.019
30.7692
30.6772
31.0613
33.022
34.1083
35.4128
36.8678
37.4434
39.3294
41.3572
43.2701
45.0421
46.6499
48.0306
48.6827
49.2545
49.7455
50.1851
50.607
50.894
50.7548
50.3075
49.6303
48.5268
47.5072
45.8021
44.626
43.325
41.8408
40.2569
38.8127
37.4412
36.1809
35.0019
33.8873
32.7692
31.7423
30.6598
29.5445
28.5436
27.4979
26.4314
25.4636
24.4742
23.467
22.6358
21.8884
21.1484
20.4624
19.8491
19.2177
18.4699
17.8978
17.3721
16.8837
16.8309
16.8233
16.8267
16.7676
15.5955
14.1608
12.8196
11.0084
8.83064
7.24768
6.04429
3.46331
-0.964614
-5.43086
-7.2423
-8.42078
-12.0443
-12.3882
-11.699
-10.6272
-9.71462
-7.16629
-6.3861
-0.347917
-1.63135
-4.17522
-5.09746
-4.28221
-2.47819
-0.575587
0.595446
0.708956
-0.130497
-1.5568
-3.18166
-4.81627
-6.33328
-7.80213
-8.42891
-9.25722
-10.2426
-10.4506
-10.4748
-10.4093
-10.3072
-10.2149
-10.14
-10.1472
-10.198
-10.3034
-10.4482
-10.8132
-13.5792
-20.6241
-43.294
-59.7372
-39.9629
3.21293
-6.42144
-15.7374
-39.4251
-57.3434
-57.4624
-62.3133
-64.4792
-63.5492
-62.1222
-58.6587
-55.2378
-50.6726
-46.1158
-41.3407
-36.6381
-32.1064
-27.7828
-23.7369
-19.9651
-16.4969
-13.3051
-10.3714
-7.70274
-5.2611
-3.03213
-1.00582
0.842342
2.5766
4.26731
5.93543
7.57662
9.22988
10.9623
12.8044
14.7407
16.8141
18.9678
21.2356
23.5683
25.7707
28.0278
30.3633
32.7628
35.2125
37.8854
39.7126
41.609
43.2687
45.1372
46.8972
48.4123
49.9687
51.7189
52.8726
53.8274
54.2746
54.6254
54.5084
54.1691
53.581
52.7848
51.78
50.6654
49.4435
48.349
48.8108
47.907
47.2287
46.7228
45.9284
42.0149
42.5229
42.8733
43.2657
44.0095
43.9203
43.7898
43.279
42.367
41.3354
40.1802
39.1213
38.3418
37.7678
37.3383
37.0863
37.0819
36.9219
36.59
36.206
35.4792
34.8041
33.6365
32.6654
31.8266
30.4272
30.1179
29.4094
28.8109
28.2889
27.7947
27.3002
26.7886
26.2662
25.7322
25.1463
24.533
23.8759
23.157
22.4983
21.8027
21.1012
20.4524
19.8585
19.285
18.7166
18.2076
17.7255
17.1891
16.6708
16.2071
15.8582
15.6428
15.4664
15.3662
15.2172
14.6506
13.8788
13.084
11.9588
10.3431
8.56866
6.57681
3.46826
-1.42729
-6.71245
-9.40236
-10.1688
-14.0701
-14.7872
-13.6642
-11.9476
-10.3845
-7.80883
-7.45004
-1.77229
-1.62657
-2.20853
-0.845318
2.02777
4.48077
5.44546
5.00217
3.50412
1.31218
-1.27316
-3.9583
-6.5886
-8.81334
-11.0225
-12.1943
-13.7601
-14.5995
-15.0006
-15.1137
-15.072
-14.9325
-14.7039
-14.3333
-14.0138
-13.861
-13.8724
-14.1395
-16.2517
-22.153
-40.7945
-56.7022
-39.8354
0.300495
-3.01901
-12.3617
-36.4788
-54.6425
-61.8245
-64.9304
-66.6662
-66.4827
-64.1669
-61.3363
-57.4521
-53.3191
-48.6161
-43.7813
-38.8322
-33.8988
-29.0715
-24.3931
-19.9087
-15.6517
-11.6346
-7.86659
-4.35441
-1.08929
1.95341
4.78764
7.40418
9.80273
12.0447
14.2332
16.3888
18.5761
20.8025
23.1121
25.5268
28.0133
30.8396
33.7225
36.6979
39.7553
42.6405
45.5418
48.4497
51.288
54.0177
56.6118
59.1677
61.3802
64.2095
66.3954
68.4446
70.2005
71.1379
73.6644
75.1155
76.6368
77.0113
77.1666
76.9769
76.5051
75.7188
74.6176
73.1764
71.4165
69.3399
66.8496
62.3248
61.0839
60.0602
59.4409
59.5956
62.7731
63.8433
64.7986
65.1686
64.66
63.3771
61.4383
58.5573
54.7113
50.3533
45.874
41.5325
37.6249
34.351
31.6716
29.3767
27.8027
26.4211
24.9912
23.7927
22.6166
21.4812
20.3453
19.2304
18.4049
17.4983
16.6403
16.7756
16.9896
17.2491
17.4774
17.6613
17.8147
17.9295
18.033
18.0772
18.0458
18.0958
18
17.7291
17.4613
17.2553
17.031
16.8073
16.5683
16.3015
16.0482
15.8057
15.5252
15.1878
14.8288
14.5502
14.3752
14.1973
13.9871
13.7134
13.2833
12.7562
12.2068
11.5172
10.4683
9.01203
7.08095
4.02895
-0.768654
-6.4129
-10.2021
-11.2408
-13.9966
-16.109
-14.6986
-12.6154
-10.4435
-8.07409
-7.29681
0.388362
2.06393
4.48139
9.60335
13.0516
13.6874
12.2048
9.38932
5.83985
1.93861
-1.89465
-5.41183
-8.89693
-13.3159
-15.0406
-17.3562
-18.3403
-18.8401
-19.1464
-19.309
-19.3823
-19.3339
-19.1267
-18.5543
-18.0613
-17.7159
-17.5806
-18.745
-22.9726
-36.4875
-52.2689
-36.744
-15.7184
10.1249
-11.2267
-26.1111
-57.5693
-61.4305
-65.9966
-67.5348
-67.3174
-65.7438
-62.9075
-59.6137
-55.7104
-51.49
-46.8954
-42.0963
-37.151
-32.1376
-27.1198
-22.1501
-17.2715
-12.521
-7.92807
-3.5203
0.676265
4.64387
8.39465
11.9522
15.3088
18.4868
21.4674
24.3212
27.0629
30.1596
33.4514
36.8456
40.3128
43.6966
47.6486
51.546
55.4855
59.4649
63.2365
66.9323
70.6641
74.4228
77.8669
81.6187
84.0694
85.8578
89.8825
91.7789
93.5168
94.7539
95.6198
96.0988
96.5138
95.0684
94.8301
94.2438
93.4473
92.4914
91.3543
90.0435
88.3266
86.4222
84.6398
83.3482
84.0129
83.2549
83.1338
83.8313
85.4479
87.8008
90.6028
93.1147
94.4757
93.7847
91.6315
87.8489
82.1699
74.9886
66.6671
58.3685
50.4779
43.3281
37.2311
32.4464
28.1729
25.0238
22.5413
19.9335
17.7641
16.0016
14.3883
12.9747
11.6188
10.6267
9.71603
8.24956
8.46983
8.70212
8.9876
9.2975
9.6318
9.99729
10.3917
10.8056
11.2141
11.6417
11.966
12.2594
12.7106
13.032
13.0546
13.2787
13.4509
13.5853
13.6711
13.7297
13.7715
13.762
13.653
13.4655
13.2864
13.1456
12.9973
12.7891
12.4516
11.9993
11.5365
11.0793
10.566
9.85611
8.71523
7.0028
4.3333
-0.00567743
-5.7345
-10.5902
-11.8017
-13.3177
-16.695
-15.341
-13.0999
-10.5894
-8.49735
-6.64937
7.48386
10.7313
18.338
23.5316
24.0401
21.4024
16.8318
11.2118
5.20531
-0.544821
-5.03059
-13.0668
-16.017
-19.0049
-20.1753
-20.9022
-21.2863
-21.6179
-21.8338
-22.0774
-22.2539
-22.5193
-22.6234
-22.2932
-21.844
-21.4979
-21.8638
-23.9605
-31.0071
-42.0317
-42.1267
-29.5484
-9.44448
-10.9629
-21.9628
-48.0651
-60.871
-65.0428
-67.3148
-67.5354
-66.3546
-64.2373
-61.3609
-58.0826
-54.3881
-50.3786
-46.0522
-41.4707
-36.6787
-31.7326
-26.6758
-21.5536
-16.4084
-11.2825
-6.21505
-1.24454
3.57677
8.17804
12.5228
16.6173
20.535
24.4945
28.3051
31.995
35.4462
39.6539
44.1822
48.9883
53.9757
59.099
64.236
69.3052
74.3033
79.9884
84.5744
89.8427
90.9552
98.1838
102.099
105.714
108.901
111.626
114.293
116.329
118.02
119.34
120.356
121.253
120.318
121.34
120.347
118.769
116.183
114.316
112.365
111.704
109.983
107.948
106.007
104.374
103.297
102.959
103.638
105.558
108.878
113.566
118.998
123.837
126.564
126.049
122.699
116.31
106.618
95.0178
81.8226
69.0636
57.3963
47.2377
38.8659
32.4776
27.3147
22.9016
19.331
16.6454
14.8485
13.3531
11.9366
10.6451
9.48138
8.43036
7.0938
6.26646
5.69791
5.27062
5.05543
4.99015
5.0505
5.22158
5.49926
5.85875
6.29194
6.79476
7.2929
7.8383
8.37372
8.90137
9.53596
9.95917
10.4313
10.873
11.264
11.6075
11.9105
12.1449
12.2573
12.2483
12.1812
12.0937
11.9643
11.7456
11.3927
10.9225
10.4361
9.97869
9.50085
8.93726
8.00865
6.51797
4.23348
0.459846
-5.01658
-10.3364
-12.6824
-13.4224
-16.4152
-15.7695
-13.5359
-10.643
-9.21165
-5.97029
16.3587
24.3844
33.5518
34.6441
31.1162
24.7535
16.7058
7.86037
-0.50467
-8.40337
-15.1915
-21.0006
-22.9209
-24.2958
-24.5256
-24.0812
-23.3442
-22.7529
-22.564
-22.521
-22.8323
-23.5778
-24.4377
-24.6719
-24.7746
-24.7323
-25.5511
-28.9868
-36.2906
-44.5989
-35.0012
-18.8729
-3.0983
-15.586
-39.465
-57.4542
-62.8662
-65.8444
-66.8343
-66.3698
-64.8865
-62.744
-60.099
-57.1159
-53.8168
-50.2106
-46.2939
-42.0984
-37.6382
-32.9414
-28.0362
-22.958
-17.7468
-12.4503
-7.11842
-1.80467
3.40358
8.38154
13.0824
17.5013
21.7687
26.3912
31.1077
36.0463
41.2843
46.6559
52.2213
58.025
64.033
70.2598
76.853
83.0704
87.692
95.5051
101.794
107.796
113.639
119.289
124.361
128.964
133.053
136.592
139.558
141.924
143.705
144.916
145.649
145.677
145.456
143.604
142.903
141.873
141.283
138.658
135.195
130.146
128.23
125.646
123.274
121.437
120.456
120.704
122.472
126.018
131.505
139.08
147.719
155.298
159.204
158.394
152.444
141.791
126.343
108.634
89.7974
71.9308
56.5076
43.6052
35.241
27.1462
21.2389
17.9083
15.7724
14.3145
13.0684
11.9305
10.6349
9.51787
8.48695
7.68384
6.46984
5.74223
4.88365
4.1708
3.67287
3.31285
3.06932
2.94534
2.96944
3.11955
3.39707
3.78921
4.25847
4.81772
5.40061
6.05052
6.7068
7.42565
8.09594
8.74633
9.35721
9.91786
10.4244
10.8486
11.1401
11.2818
11.3163
11.2766
11.1528
10.9109
10.5295
10.0348
9.51422
8.99608
8.47305
7.93112
7.11116
5.79578
3.8402
0.600388
-4.43501
-9.94619
-13.0081
-13.6624
-16.0399
-16.0935
-14.0797
-11.4086
-9.84337
-5.5326
23.7481
38.4349
43.6445
40.4252
32.7161
22.2346
10.121
-2.32447
-11.7017
-24.7802
-27.9246
-31.1331
-31.9019
-30.7178
-28.3601
-25.5868
-22.9314
-21.7816
-20.6187
-20.6039
-21.5317
-22.9722
-24.5704
-26.2661
-27.6009
-28.8039
-30.5626
-33.6164
-38.0047
-37.7731
-29.068
-16.1423
-16.5355
-25.3405
-48.9433
-59.7257
-63.217
-65.0457
-65.4121
-64.7451
-63.3573
-61.4943
-59.2775
-56.7942
-54.037
-50.9877
-47.6472
-44.0072
-40.0608
-35.8125
-31.2745
-26.4705
-21.4297
-16.1956
-10.8115
-5.39629
-0.0242291
5.14908
10.2395
15.3382
20.5053
25.724
31.0877
36.7028
42.552
48.5981
54.8257
61.2958
68.0088
75.302
83.3175
88.261
96.9521
105.253
113.146
120.902
128.492
135.746
142.56
148.825
154.437
159.302
163.352
166.55
168.879
170.348
171.001
170.823
169.856
168.117
165.667
163.466
157.713
154.317
151.108
147.187
143.791
140.337
137.487
135.554
134.893
136.02
139.348
145.151
153.491
164.623
176.958
187.12
191.279
188.505
177.779
160.204
137.239
110.917
86.2883
63.6142
47.2845
33.6976
24.3062
19.6545
16.5436
14.9918
13.6401
12.4733
11.7555
11.2403
9.76288
8.47806
7.54679
7.20298
6.16542
5.52133
4.40504
3.81426
3.25221
2.7536
2.337
2.01705
1.84177
1.8071
1.91496
2.16458
2.53344
3.02334
3.57776
4.23398
5.03465
5.74861
6.51794
7.29327
8.0441
8.7511
9.40036
9.95838
10.3742
10.6252
10.7351
10.7251
10.5892
10.3078
9.87942
9.34005
8.75803
8.15078
7.5358
6.94029
6.14613
4.95619
3.26813
0.490567
-4.04422
-9.46892
-13.0491
-13.8667
-15.4702
-16.5998
-14.8775
-12.2929
-10.7611
-6.53531
28.9915
49.0225
49.6082
41.795
29.3454
14.0963
-2.24238
-15.5251
-29.882
-36.8278
-41.9641
-42.0965
-39.6085
-34.5902
-28.9014
-23.8591
-19.9667
-18.178
-16.484
-16.6887
-18.262
-20.7923
-23.5593
-26.0002
-28.2192
-30.293
-32.229
-34.8699
-36.887
-31.9269
-26.0868
-12.142
-20.4551
-35.8108
-52.5354
-59.5805
-62.2025
-63.3714
-63.5192
-62.9566
-61.9024
-60.5157
-58.8797
-57.0277
-54.9342
-52.5863
-49.9597
-47.024
-43.7525
-40.1318
-36.1546
-31.8235
-27.113
-22.0694
-16.7412
-11.4125
-5.98524
-0.680944
4.68278
10.0956
15.6011
21.2059
26.9636
32.9614
39.2157
45.7004
52.4163
59.4277
66.732
74.5339
83.9474
89.5579
99.663
109.203
118.656
128.138
137.543
146.71
155.473
163.654
171.081
177.595
183.068
187.409
190.569
192.558
193.451
193.073
191.533
188.957
185.463
181.162
176.293
171.222
166.611
159.309
155.198
151.157
148.049
146.387
146.562
149.159
154.823
163.832
176.127
191.557
207.8
219.298
221.668
213.215
194.618
166.211
133.84
99.5304
70.3635
47.4594
31.2925
22.114
17.3384
15.4739
13.4557
12.9501
12.23
11.3622
10.7229
10.1078
9.40698
8.64489
7.82523
6.98346
6.18578
4.86483
4.46836
3.80644
2.94696
2.52717
2.07313
1.67844
1.40042
1.24974
1.2394
1.38295
1.66746
2.06526
2.65634
3.34152
3.963
4.76717
5.60414
6.45331
7.28997
8.0911
8.8339
9.47871
9.97507
10.2962
10.4487
10.4447
10.2787
9.94381
9.45008
8.8341
8.15503
7.43228
6.70336
6.00803
5.18118
4.07276
2.59712
0.205797
-3.8309
-9.00251
-12.9583
-13.9231
-14.9502
-17.0063
-15.7858
-13.2834
-11.8807
-8.12001
32.887
56.5123
52.9867
40.0829
22.5221
2.57014
-17.0956
-35.1959
-47.1691
-53.4816
-52.4849
-46.8071
-38.064
-30.4617
-23.9149
-19.0288
-15.9685
-13.6826
-12.3792
-12.7005
-14.4519
-17.3798
-20.9108
-24.3045
-27.0018
-29.1381
-30.7061
-31.2671
-31.9239
-28.2708
-20.5576
-17.0062
-23.75
-41.6478
-53.2865
-58.2951
-60.3894
-61.3011
-61.5076
-61.2407
-60.627
-59.7972
-58.8128
-57.6691
-56.3292
-54.7703
-52.9509
-50.8185
-48.3267
-45.4456
-42.1096
-38.284
-33.9133
-29.1833
-24.1454
-19.3249
-14.2175
-8.92123
-3.50976
2.04
7.75158
13.6311
19.705
26.0326
32.6483
39.5532
46.755
54.3027
62.3041
70.6096
80.35
87.9464
98.628
109.339
120.167
131.144
142.142
152.979
163.442
173.309
182.354
190.361
197.142
202.545
206.483
208.966
210.333
209.623
207.539
204.155
199.643
194.151
187.828
180.527
171.219
167.025
162.062
157.7
154.818
154.175
156.115
161.163
170.289
183.636
200.978
221.308
240.481
250.581
247.114
227.679
195.681
155.643
112.565
76.2181
45.6965
27.7931
19.0552
15.6337
13.2297
12.7228
11.3372
11.0165
10.8021
10.4788
10.0405
9.51314
8.90901
8.23755
7.50871
6.73663
5.93439
5.09118
4.02016
3.7625
2.88063
2.34599
1.93807
1.53839
1.22944
1.03719
0.981434
1.07862
1.32288
1.69759
2.18287
2.79707
3.53104
4.34794
5.21612
6.11007
7.00257
7.86652
8.6712
9.37179
9.91761
10.2775
10.4457
10.4249
10.2111
9.80487
9.22271
8.50124
7.69561
6.83621
5.97192
5.14721
4.25034
3.18729
1.8758
-0.200502
-3.77018
-8.57341
-12.7901
-14.2141
-14.8026
-17.017
-16.7566
-14.971
-12.9052
-9.6907
37.5522
62.1814
54.7044
35.9319
14.802
-9.66866
-32.5916
-49.9296
-58.8661
-58.4092
-52.6749
-42.9414
-33.1859
-25.3718
-20.2118
-16.1369
-13.0814
-10.4199
-9.05993
-9.07212
-10.4703
-13.1501
-16.9263
-20.6441
-23.9228
-26.3514
-27.9438
-29.2107
-28.798
-23.951
-17.1045
-20.4744
-27.148
-43.6214
-52.358
-56.3037
-58.1302
-58.9974
-59.2891
-59.1965
-59.2104
-59.1536
-58.9881
-58.6765
-58.183
-57.4782
-56.5168
-55.2121
-53.4876
-51.2409
-48.4066
-44.9364
-40.7711
-37.0833
-33.0067
-28.6084
-23.8212
-18.6993
-13.2879
-7.65379
-1.77377
4.37059
10.7993
17.5446
24.634
32.081
39.8978
48.1184
56.7977
65.9539
75.7196
85.3583
96.2755
108.049
119.983
132.104
144.272
156.284
167.898
178.868
188.94
197.866
205.42
211.404
215.677
218.123
218.279
217.302
214.433
210.097
204.585
198.067
191.118
183.515
174.545
169.711
164.213
160.054
158.178
159.528
164.493
173.455
187.689
206.829
229.706
255.042
273.646
277.801
259.038
224.373
175.863
126.417
76.035
41.2472
24.0223
16.748
12.2476
11.2728
10.8065
10.0397
9.96463
10.0027
9.9274
9.69777
9.33358
8.86419
8.31641
7.70332
7.04341
6.34309
5.6042
4.85402
4.06462
3.37799
2.50746
2.26035
1.72676
1.34755
1.11869
0.96278
0.87011
0.941173
1.16884
1.55855
2.07839
2.71573
3.46605
4.30488
5.2044
6.13743
7.07611
7.99005
8.8418
9.58204
10.1588
10.5364
10.6997
10.6441
10.3658
9.87007
9.17711
8.32488
7.36841
6.35077
5.3313
4.35768
3.36854
2.32059
1.12946
-0.690473
-3.82749
-8.19725
-12.3649
-14.223
-14.6737
-16.863
-17.5957
-16.4195
-13.9953
-11.5435
42.0457
67.1369
54.717
31.5812
9.64819
-18.9968
-43.313
-59.3372
-65.1457
-61.4124
-51.3598
-39.7102
-29.4073
-20.5012
-15.0467
-12.4453
-9.64899
-7.76817
-6.96878
-7.28263
-8.75083
-11.1295
-13.5448
-16.6486
-19.5698
-22.045
-24.3805
-25.569
-23.8729
-21.3888
-17.4757
-21.9188
-30.9022
-43.4893
-50.5521
-54.0173
-55.8071
-56.88
-58.3991
-58.3058
-58.6532
-58.9241
-59.1045
-59.1625
-59.0569
-58.7745
-58.2343
-57.3664
-56.0383
-54.0235
-51.573
-49.4089
-47.8115
-45.2685
-42.0742
-38.2908
-33.9245
-29.0086
-23.41
-17.6888
-11.6435
-5.21235
1.62475
8.88174
16.5718
24.7043
33.29
42.3527
51.9304
62.0288
72.4093
83.3317
93.8119
107.505
120.425
133.363
146.201
158.693
170.594
181.64
191.602
200.264
207.427
212.909
216.569
218.351
218.338
218.29
215.125
210.188
204.074
197.007
189.132
181.102
173.426
166.738
161.749
159.132
159.744
164.624
174.096
188.586
209.43
235.52
263.589
291.645
304.752
290.749
248.214
193.126
133.356
70.7194
38.2414
21.0317
12.3805
10.9625
9.51656
7.43201
8.28998
8.86413
9.15696
9.23522
9.14405
8.91253
8.56671
8.12898
7.62261
7.06036
6.45554
5.81665
5.14571
4.46301
3.78241
3.07703
2.37507
1.79741
1.34899
0.963425
0.820598
0.822458
0.776006
0.861016
1.12727
1.52177
2.10092
2.79946
3.60372
4.49204
5.4401
6.42269
7.41322
8.3791
9.27697
10.0529
10.6527
11.0362
11.1808
11.0762
10.7185
10.1158
9.29124
8.28561
7.15682
5.96147
4.76904
3.63349
2.5389
1.48003
0.370281
-1.23706
-3.97088
-7.87302
-11.8379
-13.9084
-14.5638
-16.2292
-18.4758
-18.128
-15.5748
-14.117
44.5262
70.9065
55.4484
29.8181
7.24361
-23.4909
-47.2049
-60.68
-63.3098
-57.0605
-45.6033
-33.5372
-23.941
-16.0876
-11.3232
-8.74106
-6.71444
-4.8853
-4.60064
-5.44808
-7.18633
-9.7006
-12.8088
-15.8209
-18.4945
-20.5252
-21.2296
-21.9803
-21.2752
-20.3981
-19.7855
-23.3538
-34.3625
-43.1123
-48.6609
-51.8175
-53.7035
-55.0604
-57.0722
-56.8865
-57.7303
-58.574
-59.3198
-59.9378
-60.2511
-60.4073
-60.0888
-59.4796
-58.9992
-57.8148
-56.2633
-54.7228
-52.5833
-50.3399
-47.6039
-44.2457
-40.2957
-35.9707
-32.0791
-26.8847
-20.8729
-14.2143
-6.97452
0.82093
9.16454
18.0561
27.5026
37.5348
48.2286
59.6804
71.8161
83.4257
93.0791
108.316
121.605
134.663
147.464
159.732
171.246
181.775
191.101
199.061
205.507
210.285
213.265
214.382
213.713
211.409
207.142
201.333
194.51
186.954
178.978
171.164
164.176
158.827
156.132
156.878
161.965
172.323
188.081
209.361
237.778
271.5
301.666
329.977
326.203
272.402
207.573
130.002
64.2495
33.4428
18.3415
9.6714
7.94365
6.12183
6.36155
7.07094
7.74026
8.19634
8.41868
8.44784
8.32063
8.0731
7.73512
7.32371
6.85463
6.34002
5.78266
5.19605
4.58952
3.95849
3.32471
2.68621
2.04416
1.42567
0.905067
0.528118
0.308193
0.331404
0.368311
0.58435
1.0321
1.43437
2.10459
2.8802
3.79888
4.78588
5.81507
6.87062
7.93112
8.96299
9.91724
10.7348
11.3581
11.7427
11.8601
11.6956
11.2452
10.5189
9.54316
8.36321
7.04268
5.65206
4.27161
2.96581
1.75703
0.665586
-0.395029
-1.8223
-4.18049
-7.61033
-11.3332
-13.6341
-14.2985
-15.5785
-19.0057
-19.7048
-18.0608
-16.0516
45.7189
77.5711
60.6586
31.6013
9.29274
-21.7289
-43.2995
-54.5172
-56.2764
-51.3621
-41.8381
-30.9982
-21.9173
-14.8743
-9.42316
-6.42542
-5.02906
-3.44709
-3.81873
-5.0748
-7.17305
-9.83866
-12.8491
-15.4837
-17.6872
-19.33
-20.5805
-21.3267
-21.1155
-20.7984
-21.1403
-25.9216
-34.9648
-42.1426
-47.1466
-50.4318
-52.4427
-53.9429
-55.2607
-55.9896
-56.607
-57.2728
-58.4916
-59.6295
-60.7545
-61.5201
-61.9071
-62.0227
-62.1191
-61.8469
-61.2699
-60.4021
-58.9005
-57.1603
-54.9524
-52.0166
-48.0841
-43.874
-38.7265
-33.2551
-27.1798
-20.4534
-13.0749
-5.04434
3.64723
13.0166
23.0855
33.8978
45.5706
58.404
71.7074
83.6439
92.1076
108.565
121.942
134.827
147.117
158.572
168.961
178.091
185.786
191.958
196.591
199.594
200.925
200.461
198.402
194.977
190.06
183.856
176.828
169.455
162.23
155.902
151.219
148.977
150.575
156.536
168.041
185.722
210.286
238.675
280.399
320.599
352.275
348.844
294.538
201.49
112.842
58.2822
28.9466
15.2467
6.65437
6.76185
2.93992
4.44678
5.83694
6.74669
7.28101
7.55257
7.66115
7.63497
7.46737
7.19513
6.85733
6.47129
6.03659
5.56077
5.05302
4.50857
3.94387
3.36688
2.7771
2.18361
1.59119
1.00582
0.461231
-0.0236401
-0.333292
-0.352573
-0.323594
0.0865628
0.554441
1.03376
1.96854
2.83142
3.90695
5.06617
6.23627
7.40466
8.56628
9.69007
10.7212
11.5945
12.2484
12.6344
12.7192
12.4851
11.9283
11.0612
9.91424
8.53876
7.0071
5.40421
3.82258
2.34064
1.01078
-0.130601
-1.16527
-2.43848
-4.44834
-7.41291
-10.8219
-13.23
-13.943
-15.1825
-19.0232
-21.0638
-20.3091
-18.4405
45.0482
80.3392
65.4199
39.5895
18.995
-7.93719
-26.1492
-37.2296
-41.5558
-41.965
-37.6835
-30.1329
-23.2505
-17.345
-12.3235
-8.71253
-6.79009
-6.04947
-6.03181
-7.26096
-9.15306
-11.4047
-13.6676
-15.72
-17.3823
-18.8031
-20.16
-21.1242
-21.7707
-22.2717
-23.8537
-29.0037
-36.2747
-42.2832
-46.5866
-49.2927
-50.929
-52.2903
-53.664
-54.1118
-54.7495
-55.8806
-57.2965
-58.7423
-60.0922
-61.1949
-62.0254
-62.636
-63.0642
-63.1894
-63.0061
-62.5293
-61.7121
-60.5725
-59.0025
-56.924
-54.5046
-50.8607
-46.0543
-40.5275
-34.2911
-27.3007
-19.5185
-10.9158
-1.46661
8.85335
20.0547
32.1444
45.2096
59.0477
73.5332
81.6969
93.2106
109.974
122.301
134.215
145.137
154.83
163.134
169.97
175.269
178.977
181.265
182.089
181.519
179.527
176.125
171.658
166.267
160.169
153.853
147.882
142.737
139.415
138.618
141.363
149.37
163.117
182.85
213.79
249.27
289.292
334.072
364.346
356.449
299.969
179.725
91.4189
49.3072
20.8306
9.69112
6.29528
2.09079
2.1105
3.6166
4.85488
5.77687
6.39366
6.76209
6.88859
6.90362
6.8447
6.63963
6.33407
5.99193
5.62259
5.22339
4.77859
4.30115
3.79751
3.26736
2.71947
2.1608
1.59784
1.03865
0.491191
-0.0300042
-0.505987
-0.928314
-1.18232
-1.15227
-0.882371
-0.340246
0.759925
1.40497
2.44781
3.81225
5.20914
6.60355
7.94435
9.25035
10.5025
11.6397
12.5892
13.2856
13.6767
13.7261
13.4143
12.739
11.7153
10.3792
8.7898
7.03066
5.2022
3.41085
1.75045
0.295149
-0.908977
-1.93482
-3.07712
-4.77508
-7.29378
-10.3478
-12.8207
-13.5598
-14.7619
-18.6965
-22.1813
-22.4457
-20.9005
41.3556
76.4852
70.2898
45.9545
25.8713
13.8448
-4.10651
-14.9266
-21.537
-26.0528
-27.2036
-25.5565
-22.3718
-19.5728
-16.48
-13.7533
-11.7221
-10.5435
-10.1862
-10.6052
-11.6155
-13.0219
-14.499
-16.1205
-17.0397
-18.7172
-20.2385
-21.8663
-23.6049
-25.3108
-28.1453
-33.0645
-38.4617
-43.2844
-46.8509
-49.2314
-50.2858
-51.4059
-52.6028
-53.648
-54.2855
-54.9043
-55.9372
-57.2155
-58.6388
-60.0038
-61.1491
-62.037
-62.6942
-63.0908
-63.2152
-63.0822
-62.7153
-62.0734
-60.996
-59.3648
-57.0396
-53.8238
-49.6341
-44.5293
-38.5267
-31.6062
-23.7348
-14.8826
-5.02873
5.8367
17.6941
30.4981
44.4954
60.2917
75.4497
81.1591
95.7586
108.588
120.006
130.121
138.86
146.153
151.923
156.21
159.102
160.534
160.709
159.759
157.741
154.649
150.632
146.007
141.081
136.032
131.478
127.902
126.032
127.092
132.236
141.452
161.447
186.298
216.224
253.702
293.822
333.385
366.908
355.622
297.785
166.407
81.8518
41.4917
17.7111
7.61413
2.14298
0.89039
0.976923
2.47806
4.00875
5.11819
5.67658
6.02716
6.23071
6.22518
6.16542
6.08637
5.89934
5.55489
5.20668
4.8492
4.46467
4.05124
3.5985
3.11172
2.5986
2.06611
1.52266
0.974758
0.431313
-0.0993489
-0.597798
-1.05227
-1.44653
-1.73646
-1.9604
-1.76241
-1.38933
-0.569964
1.08808
2.01392
3.32518
5.19423
6.83617
8.41773
9.91448
11.3347
12.6112
13.6608
14.4144
14.8181
14.8333
14.4398
13.6385
12.4477
10.9109
9.09573
7.09883
5.03731
3.03313
1.19518
-0.387467
-1.66289
-2.693
-3.72757
-5.15162
-7.26306
-9.94391
-12.4365
-13.425
-14.3839
-17.5036
-23.4367
-24.3807
-23.3626
42.3762
70.1496
67.602
53.8141
37.9943
26.0226
14.2612
5.35596
0.538579
-5.48508
-8.96953
-11.5443
-12.4871
-13.1095
-13.44
-13.2725
-12.8064
-12.4813
-12.4676
-12.4829
-12.8817
-13.6021
-14.6192
-16.0667
-17.6116
-19.9138
-22.3142
-24.3007
-28.0016
-31.2156
-35.0903
-39.5229
-43.1073
-46.819
-49.8383
-52.5286
-53.1696
-53.2905
-54.159
-54.9586
-55.1125
-55.6192
-56.4102
-57.3562
-58.3139
-59.1599
-59.8535
-60.6166
-61.3248
-61.9372
-62.369
-62.5591
-62.5517
-62.2949
-61.6221
-60.3347
-58.3144
-55.4864
-51.7537
-47.0484
-41.3151
-34.5032
-26.5736
-17.5077
-7.32272
3.93425
16.1709
29.2063
43.4794
61.432
69.5187
78.2899
93.713
103.512
112.681
120.521
126.898
131.857
135.423
137.652
138.715
138.605
137.474
135.501
132.837
129.57
125.87
122.014
118.256
115.121
113.332
113.667
116.169
126.11
139.856
159.146
185.84
216.697
251.883
292.134
330.705
357.433
349.945
278.454
140.403
68.6624
33.3724
16.0761
3.35615
1.22568
-1.48161
-0.349051
1.8728
3.48575
4.45474
5.25677
5.4246
5.60873
5.69401
5.57443
5.479
5.26596
5.20209
4.85809
4.49367
4.14982
3.78381
3.38084
2.93699
2.45504
1.94537
1.41384
0.870418
0.32307
-0.219586
-0.748555
-1.24477
-1.68993
-2.05619
-2.3377
-2.49416
-2.58257
-2.31862
-1.67575
-0.504242
1.73316
2.84013
4.73163
6.87137
8.79136
10.53
12.1578
13.6089
14.7845
15.6115
16.0367
16.0204
15.5425
14.6096
13.244
11.4956
9.44622
7.20383
4.90312
2.68435
0.670285
-1.04068
-2.39327
-3.43814
-4.38673
-5.57586
-7.31979
-9.64424
-11.9912
-13.1057
-13.9394
-16.6628
-23.9354
-25.9665
-25.6459
38.174
63.2326
62.982
54.4262
43.7149
33.763
25.7743
20.1027
15.9949
11.5554
7.97685
4.24915
0.54207
-2.44881
-4.89155
-6.57066
-7.15554
-7.15701
-7.43723
-7.42299
-8.1011
-9.57222
-11.8963
-14.9581
-18.8241
-23.3799
-28.2043
-33.4653
-38.7932
-43.8525
-48.5616
-52.543
-56.0379
-58.9514
-60.4971
-61.2959
-61.4323
-61.6531
-61.8979
-62.2855
-60.8689
-60.5772
-60.4057
-60.4211
-60.5069
-60.4916
-60.2978
-60.278
-60.3668
-60.6657
-61.0513
-61.28
-61.3006
-61.0723
-60.4944
-59.465
-57.7857
-55.3567
-52.0358
-47.702
-42.2515
-35.6136
-27.7632
-18.7299
-8.58769
2.53091
14.4569
26.8575
40.387
56.6551
64.5485
73.6906
84.2019
92.9487
100.305
106.298
110.898
114.206
116.335
117.352
117.41
116.614
115.051
112.879
110.237
107.4
104.659
102.449
100.85
100.56
104.67
110.894
120.388
135.998
156.85
183.059
213.566
248.481
284.397
320.466
346.775
337.429
262.545
143.937
71.8362
29.6607
12.8995
0.614049
0.59163
-3.20147
-0.86165
1.34644
2.73793
4.13105
4.6084
4.86776
5.14334
5.23496
5.10123
5.0452
4.77785
4.65532
4.48835
4.21144
3.85768
3.52741
3.16507
2.76218
2.31467
1.82483
1.30546
0.762309
0.206644
-0.351831
-0.906252
-1.44541
-1.95303
-2.40414
-2.76723
-3.0392
-3.17573
-3.13399
-3.04008
-2.79827
-1.71716
0.21277
2.69713
3.98696
6.64212
9.02793
11.0838
12.9564
14.6157
15.9433
16.8598
17.3151
17.2716
16.7083
15.6349
14.1067
12.1239
9.83452
7.34341
4.79906
2.36278
0.174884
-1.66443
-3.09866
-4.16802
-5.05153
-6.04582
-7.46806
-9.44841
-11.5965
-12.7528
-13.4817
-15.9951
-23.9436
-27.1397
-27.6037
31.9518
58.4746
60.2881
55.3789
48.3527
41.1857
34.7967
30.0789
26.6887
22.8207
18.3678
13.152
7.52828
2.07821
-2.47056
-5.65528
-7.09784
-6.93931
-5.39208
-2.54889
-0.526387
1.26158
1.136
-0.997158
-5.49135
-12.3383
-21.0487
-31
-41.2894
-51.1142
-59.7934
-66.8808
-72.3661
-76.3195
-78.6961
-79.4428
-78.9282
-77.9055
-76.5647
-75.6928
-74.4222
-72.7855
-71.1908
-69.5735
-67.5584
-65.8345
-63.1143
-62.081
-61.3414
-60.6753
-60.0268
-59.3496
-58.4571
-57.4946
-56.6809
-55.6129
-54.0969
-51.9607
-48.9976
-45.0531
-40.0269
-33.8666
-26.5681
-18.1928
-8.86518
1.25224
11.9787
22.9653
34.7266
49.6664
55.5046
63.4355
73.1198
80.2647
86.2517
91.0093
94.5385
96.906
98.2311
98.6377
98.2747
97.2828
95.7787
93.9288
91.879
90.0802
90.1362
90.827
92.5977
96.5549
104.531
115.896
131.549
152.603
178.389
207.517
239.818
275.965
307.659
330.177
320.622
233.096
128.892
53.4573
18.2842
8.95884
0.729977
-2.4869
-3.33963
-1.29786
0.677408
2.64672
3.20598
3.6574
4.71252
4.80243
4.76987
4.68532
4.56829
4.37392
4.31047
4.00534
3.93685
3.52826
3.28386
2.94859
2.58143
2.17493
1.71902
1.2146
0.677389
0.114034
-0.464952
-1.04568
-1.62379
-2.18643
-2.71527
-3.18535
-3.55635
-3.8275
-3.98334
-3.90604
-3.60262
-3.40636
-3.05612
-1.33909
1.86473
3.47968
5.6604
9.25527
11.5745
13.7251
15.6209
17.1238
18.1465
18.6403
18.572
17.9441
16.6952
14.9701
12.702
10.2028
7.51667
4.73445
2.06953
-0.288527
-2.25577
-3.77539
-4.87937
-5.71912
-6.55778
-7.70807
-9.36485
-11.2745
-12.391
-13.0385
-15.4629
-23.6443
-27.8486
-29.1237
28.2926
53.1199
57.1179
55.3935
51.4634
46.712
42.2785
38.1208
33.8071
30.0415
24.7583
18.0773
10.4392
2.34262
-5.37576
-11.8559
-16.2838
-18.2049
-17.4066
-14.0841
-8.909
-2.09197
2.91556
7.37648
9.02708
7.15759
1.51678
-7.51447
-19.367
-32.8964
-46.8201
-59.9127
-71.3123
-80.4893
-87.1213
-91.0677
-92.5961
-92.452
-91.1245
-89.3495
-87.0382
-83.3834
-81.7793
-77.6708
-75.1829
-71.7972
-69.0424
-66.2875
-64.0642
-62.2084
-60.6813
-59.025
-56.981
-54.2822
-51.3174
-49.5486
-47.5725
-45.2638
-42.397
-38.8064
-34.3805
-29.0559
-22.8149
-15.6888
-7.77215
0.793453
9.86663
19.1775
28.9455
41.6568
47.0856
53.2321
61.7546
67.8046
72.6777
76.4977
79.2973
81.1394
82.1398
82.439
82.1933
81.5696
80.7147
79.8555
79.1901
79.3025
81.3001
84.6641
89.9949
98.2768
110.215
126.241
146.764
171.338
199.283
230.331
261.605
293.046
312.453
303.034
226.84
128.298
46.9852
19.0226
5.2702
0.531421
-4.02422
-3.96597
-1.91073
0.189985
2.15131
2.76157
3.61823
4.22033
4.35612
4.35973
4.30597
4.1838
4.06554
3.87817
3.74105
3.43928
3.2924
2.99495
2.83006
2.41515
2.03331
1.61934
1.15003
0.623937
0.0593395
-0.533971
-1.14922
-1.76519
-2.37785
-2.97877
-3.53899
-4.03839
-4.42967
-4.69011
-4.86555
-4.848
-4.42343
-3.9072
-3.75525
-2.68679
0.0517162
3.41029
5.07303
8.69183
11.9302
14.4586
16.6162
18.313
19.4591
19.9984
19.9379
19.1348
17.6423
15.7477
13.4166
10.6949
7.74168
4.73465
1.87221
-0.707255
-2.8118
-4.41814
-5.56719
-6.38611
-7.10744
-8.03433
-9.39925
-11.0442
-12.0396
-12.6439
-15.0343
-23.1608
-28.1163
-30.1525
22.6492
43.247
52.5244
54.1429
53.0641
50.6304
47.5178
43.9796
40.08
35.2389
29.7761
22.7748
14.3089
4.68282
-5.4349
-15.1325
-23.5156
-29.7705
-33.1534
-33.2228
-30.1035
-24.1012
-15.4645
-6.7876
1.64332
8.22765
11.5631
11.3093
6.50365
-2.47823
-14.7968
-29.0941
-43.9616
-58.0482
-70.2346
-79.712
-86.2132
-90.0538
-91.6026
-91.4205
-89.9702
-86.9884
-84.0369
-80.6342
-77.1259
-72.1675
-70.0293
-66.2814
-62.9874
-60.0319
-57.6751
-55.3818
-53.053
-49.6299
-46.6324
-44.2209
-41.7432
-39.1551
-36.2247
-32.8312
-28.8485
-24.2108
-18.8904
-12.897
-6.28901
0.827927
8.37354
16.0893
23.9993
34.5424
41.862
44.7358
51.489
56.5516
60.6095
63.7239
65.9939
67.5072
68.38
68.7668
68.831
68.7706
68.78
69.1399
70.195
72.4815
76.6664
82.8011
91.5968
103.745
119.501
139.479
162.57
188.937
218.045
248.661
275.483
291.842
279.702
205.27
103.615
42.4397
16.5803
2.50884
-0.72134
-4.50424
-4.41035
-2.37384
-0.206985
1.63259
2.25172
3.33683
3.87993
4.02205
4.03051
3.97391
3.87927
3.76671
3.59532
3.46761
3.20913
3.11844
2.7096
2.53309
2.44996
1.84793
1.51356
1.0974
0.607461
0.0511791
-0.553036
-1.18827
-1.85384
-2.52102
-3.17912
-3.83629
-4.44286
-4.97463
-5.40406
-5.65697
-5.80515
-5.86851
-5.49251
-4.66453
-4.16754
-3.96831
-1.51529
2.67785
4.67467
7.41778
12.3791
15.1617
17.5944
19.5009
20.7859
21.4005
21.1663
20.2117
18.8015
16.7828
14.2272
11.2725
8.06268
4.78994
1.6758
-1.04098
-3.27128
-5.01959
-6.22377
-7.04591
-7.69032
-8.44076
-9.54315
-10.9037
-11.6985
-12.3119
-14.6799
-22.6199
-27.9884
-30.6722
18.1994
34.5216
46.2626
51.2509
52.9313
52.5086
50.5927
47.6736
43.9988
39.4612
33.9839
27.7677
20.0621
10.8771
0.439795
-10.5624
-21.4126
-31.2967
-39.4338
-44.7372
-46.9096
-45.4811
-40.5415
-32.808
-23.0258
-12.0462
-2.38013
6.71011
12.0157
13.1486
9.6159
2.05619
-8.76818
-21.4809
-34.6213
-46.7922
-57.0505
-65.0149
-70.5381
-73.7575
-75.047
-74.6262
-73.0688
-70.6742
-67.6619
-63.5287
-60.1951
-56.9008
-52.9479
-51.2328
-48.8242
-45.8828
-43.3717
-41.3428
-38.9057
-35.7474
-33.2444
-30.9138
-28.3607
-25.5852
-22.3309
-18.5574
-14.2483
-9.40434
-4.06315
1.67442
7.80641
14.0258
20.3034
28.905
34.9351
37.1927
42.7792
46.7923
50.0746
52.5855
54.43
55.7123
56.5557
57.1429
57.6463
58.2979
59.3634
61.1077
64.0239
68.5209
75.188
84.0763
96.1248
111.536
130.697
152.961
177.32
204.791
233.031
257.951
272.046
258.549
183.137
87.3252
40.6419
11.3901
2.0144
-1.91293
-5.5528
-5.16991
-2.93042
-0.638923
1.32903
1.62671
3.16333
3.5644
3.69328
3.71815
3.69179
3.62457
3.51444
3.39123
3.20839
3.05014
2.841
2.63173
2.4581
2.09583
1.90111
1.39027
1.07377
0.61295
0.0869398
-0.507218
-1.16391
-1.85561
-2.58618
-3.32492
-4.04181
-4.77243
-5.45082
-6.01527
-6.49154
-6.77013
-6.84911
-6.92805
-6.71008
-5.74111
-4.72478
-4.54796
-3.36345
1.12057
4.64277
6.96369
11.8204
15.6923
18.5242
20.6729
22.0946
22.6799
22.3624
21.5369
19.9997
17.8141
15.0662
11.8859
8.44105
4.93201
1.57227
-1.3871
-3.74731
-5.51319
-6.83558
-7.69242
-8.29806
-8.91723
-9.79483
-10.8591
-11.3836
-12.0727
-14.4281
-22.0829
-27.5162
-30.6937
12.0256
19.7279
32.229
42.4884
47.7605
48.7843
48.8849
46.7916
44.0115
40.3684
36.3729
31.4484
25.4994
18.2423
9.49868
-0.500183
-11.4442
-22.722
-33.4589
-43.1872
-51.2205
-56.3026
-57.8778
-55.579
-49.4146
-39.6313
-26.2847
-14.9918
-1.23907
8.3888
14.1388
16.3258
14.2032
8.58563
0.418544
-8.91724
-18.2541
-26.8193
-34.0235
-39.5323
-43.3025
-45.4437
-46.1674
-45.7214
-44.3268
-41.8818
-39.3508
-36.9557
-34.2967
-32.482
-30.8923
-29.0035
-26.9395
-25.9603
-24.3583
-23.6335
-22.235
-19.8718
-17.5149
-16.0939
-13.9226
-11.2757
-8.19019
-4.65697
-0.68488
3.60106
8.32884
13.0459
17.9972
24.3927
27.2727
30.9594
35.4657
38.4583
40.9556
42.9202
44.4109
45.5407
46.4342
47.3182
48.3662
49.8298
52.0885
55.2854
60.1362
66.7352
76.0388
87.5285
102.785
120.596
141.934
165.625
189.992
216.553
238.77
251.177
236.268
167.042
82.5849
40.4017
8.7114
1.45837
-4.32793
-5.80902
-5.71217
-3.53245
-1.05559
0.738881
1.34044
2.81918
3.22495
3.37312
3.43666
3.44271
3.40499
3.32123
3.20435
3.05199
2.8755
2.67493
2.50842
2.19715
2.06204
1.62151
1.43586
0.954118
0.756013
0.161239
-0.416016
-1.05233
-1.77349
-2.53906
-3.34938
-4.18301
-4.97677
-5.79332
-6.57795
-7.18565
-7.69829
-8.04539
-8.06324
-8.0604
-7.99535
-7.07534
-5.59758
-5.02811
-4.46664
-0.607321
4.23497
6.43868
10.7723
16.3366
19.4024
21.8145
23.3136
23.8055
23.7322
22.8584
21.2248
18.8948
15.9664
12.5741
8.89878
5.15302
1.5707
-1.59575
-4.16759
-6.07612
-7.37351
-8.25534
-8.91125
-9.43046
-10.1154
-10.7244
-11.0288
-11.9837
-14.3367
-21.5397
-26.753
-30.253
3.57159
6.42089
19.8709
26.7722
31.5078
33.7137
34.767
34.4004
34.2914
32.9954
31.3536
28.9087
25.717
21.3472
15.6621
8.12797
-1.30274
-12.2242
-24.047
-36.0331
-47.488
-56.9568
-63.5467
-66.3487
-64.8686
-58.8764
-48.4679
-33.5984
-22.6594
-4.2478
7.3391
17.6533
23.5485
26.0719
25.1359
21.7791
17.0028
11.4346
5.76059
0.535031
-3.76633
-6.99245
-9.13784
-10.2801
-10.5205
-9.8715
-8.8492
-7.81621
-6.68479
-5.90509
-5.48069
-5.07377
-4.58653
-4.60688
-4.31394
-4.7759
-4.94793
-5.61008
-5.78071
-4.21967
-3.29875
-2.06821
-0.511365
1.46656
3.88729
6.56446
9.84912
13.0548
17.1323
19.717
22.175
26.5184
28.8196
30.9599
32.7985
34.2747
35.4718
36.5215
37.5438
38.831
40.5425
42.9157
46.533
51.2283
58.1397
66.7575
78.7754
92.5428
110.408
129.254
152.792
175.617
198.937
219.707
226.737
216.499
149.041
67.6593
35.0787
5.72089
0.555297
-4.25682
-5.12647
-6.37837
-4.13807
-1.52646
0.297551
0.956434
2.47188
2.89066
3.06042
3.15723
3.21053
3.21164
3.1641
3.06188
2.9332
2.75708
2.56941
2.36229
2.16357
1.90462
1.63679
1.47364
0.922883
0.619634
0.523755
-0.377626
-0.906856
-1.57207
-2.36615
-3.22084
-4.12426
-5.07203
-5.9666
-6.8837
-7.81033
-8.49404
-9.02365
-9.46117
-9.47789
-9.33188
-9.32074
-8.5773
-6.80498
-5.63467
-5.29709
-2.43795
3.59421
6.02949
9.63216
16.6286
20.2174
22.9077
24.3189
25.1423
25.0995
24.1971
22.4835
20.03
16.9398
13.3514
9.4553
5.47502
1.66237
-1.71856
-4.46514
-6.49511
-7.95366
-9.08836
-9.43207
-9.82297
-10.3772
-10.6802
-11.0573
-12.1514
-14.4512
-20.9034
-25.7953
-29.3987
1.6184
-1.29599
-14.8704
-17.0788
-11.6761
-6.38039
-0.627376
3.9772
7.88738
10.9647
12.8988
14.6676
14.9332
14.088
12.0415
7.90481
1.45821
-7.35772
-18.2754
-30.5397
-43.4795
-55.3132
-65.0761
-71.2707
-72.9244
-69.3013
-60.4349
-46.5106
-32.2539
-10.0514
1.26266
19.0873
29.6487
38.7765
44.0299
46.4307
46.7431
45.0802
42.1908
38.6299
35.2757
32.4133
30.0302
28.1859
26.9238
26.2317
25.8619
25.5659
25.3023
24.8295
23.99
22.949
21.8408
20.3639
18.8253
16.7176
15.3191
13.2714
11.5793
9.42102
9.14592
8.74528
8.37738
8.56527
9.24703
10.1612
11.9542
14.1265
15.0709
17.3197
18.9791
20.9873
22.5357
23.8531
25.0753
26.1108
27.0935
28.1518
29.3994
31.2256
33.7427
37.1349
42.3121
48.5461
57.6311
68.1695
82.606
97.8475
117.869
136.993
161.719
179.61
203.182
204.143
193.601
114.593
51.2498
26.5275
4.28863
-0.592905
-5.18117
-5.54831
-6.95345
-4.65393
-1.99377
0.0330723
0.569284
2.08377
2.53468
2.73982
2.87907
2.98124
3.03182
3.02571
2.96182
2.83512
2.69707
2.48623
2.30642
2.07455
1.90222
1.58681
1.42468
1.05906
0.84649
0.19574
0.0329006
-0.6761
-1.30527
-2.00758
-2.87591
-3.82146
-4.82631
-5.90685
-6.93346
-7.98047
-9.0949
-9.91867
-10.4716
-10.982
-11.0673
-10.7832
-10.7017
-10.1588
-8.28967
-6.49086
-5.99976
-3.90631
2.58481
5.38856
9.28922
16.2316
20.7815
23.7573
25.465
26.4479
26.4609
25.552
23.7829
21.2311
18.0029
14.2385
10.1336
5.92278
1.87174
-1.73525
-4.68312
-6.87474
-8.21296
-9.39202
-10.2288
-10.5716
-10.7731
-10.8669
-11.2519
-12.3837
-14.7785
-20.0091
-24.5546
-28.3078
0.385929
1.03051
-1.16516
-2.18479
-3.3337
-4.77761
-5.64203
-6.10544
-5.97095
-5.3324
-4.4085
-3.37399
-2.1065
-2.32888
-2.53627
-4.3262
-8.44303
-15.0785
-24.218
-35.269
-47.6755
-59.9162
-70.5896
-77.7316
-80.0476
-76.3401
-66.5841
-51.4846
-34.2228
-12.0289
5.23405
29.2707
40.118
55.5965
67.2543
73.6709
77.8652
78.6412
77.5047
74.7507
72.6054
70.4595
67.9696
65.6088
63.57
61.6252
59.9505
58.4244
56.9489
55.31
53.32
51.0332
48.563
45.7228
42.6357
39.0576
35.6072
32.0312
28.4686
25.2467
22.1067
19.2793
17.4709
15.7971
14.5831
13.6619
13.4461
13.4743
13.4827
13.9715
14.5261
15.1418
15.6895
16.2291
16.8655
17.4505
18.3638
19.5493
21.1614
23.7375
27.2529
31.8641
38.902
46.7888
58.0752
70.2253
86.4282
103.561
124.038
143.023
164.451
175.692
192.332
161.757
93.4486
52.8338
22.8233
7.69464
-0.524602
-4.16527
-6.57815
-7.41637
-5.05296
-2.37668
-0.315673
0.322165
1.70331
2.17568
2.4075
2.57945
2.73024
2.84258
2.89166
2.86891
2.7791
2.62112
2.47551
2.22866
2.08259
1.79925
1.70205
1.28276
1.27193
0.746791
0.645711
-0.0105026
-0.373847
-0.799931
-1.67734
-2.25321
-3.1682
-4.1894
-5.29688
-6.55902
-7.77525
-9.00416
-10.4296
-11.569
-12.2205
-12.7852
-12.9831
-12.5884
-12.3135
-11.9217
-10.1257
-7.73683
-6.78657
-5.27665
0.506289
5.74064
8.35924
15.2425
21.1078
24.3851
26.6914
27.8394
27.9327
27.047
25.25
22.6217
19.2718
15.3403
11.0224
6.56507
2.24612
-1.62496
-4.82221
-6.97382
-7.95727
-10.1895
-10.9945
-11.3586
-11.415
-11.3692
-11.6095
-12.5767
-15.114
-18.9462
-23.0365
-26.7066
-0.541138
-0.79064
-0.558048
-0.507271
0.100555
-0.835345
-1.40633
-0.922878
-3.72754
-1.89749
-7.03861
-9.15967
-6.01235
-11.5016
-15.7065
-19.6145
-25.4263
-33.0393
-42.4731
-52.8958
-64.3964
-75.1873
-84.2173
-89.308
-88.9825
-81.7264
-67.7336
-49.2131
-27.7973
-2.25559
21.7844
48.6587
69.9694
88.6291
104.803
110.075
116.124
116.446
114.531
116.625
114.453
112.406
107.961
103.824
100.29
95.2687
91.7777
88.6252
85.6098
82.4928
79.1443
75.548
71.7909
67.7193
63.3202
58.5012
53.5171
48.4223
43.3206
38.3872
33.5614
29.212
24.9727
21.2408
18.0401
15.2322
13.0118
11.2209
9.71531
8.63772
7.82431
7.22208
6.82234
6.66122
6.77827
7.15954
8.17846
9.70413
11.9758
15.6718
20.4608
26.7543
35.7833
45.3852
58.6611
72.7107
89.6855
109.598
125.68
145.636
150.836
160.459
107.589
66.2504
33.1443
10.6099
4.72219
-5.35774
-4.04619
-9.46054
-8.0401
-5.18272
-2.44454
-0.702673
-0.0161539
1.434
1.81857
2.04987
2.25917
2.45906
2.63757
2.75435
2.79172
2.73866
2.61204
2.42249
2.27584
2.00407
1.89
1.59015
1.52112
1.13904
1.08253
0.690721
0.301836
0.361954
-0.695544
-0.949533
-1.33219
-1.80039
-2.70025
-3.67113
-4.77704
-6.2309
-7.67812
-9.14896
-11.0698
-13.0066
-14.2595
-15.1166
-15.5148
-15.0483
-14.4313
-13.9976
-12.3518
-9.5039
-7.84905
-6.62437
-1.46681
5.21762
8.00735
12.7294
22.2398
25.4924
28.0062
29.3247
29.5188
28.6762
26.8734
24.1936
20.7397
16.6491
12.1138
7.39371
2.77814
-1.38934
-4.84212
-6.78886
-8.18338
-10.9795
-11.8079
-12.1917
-12.2196
-12.1289
-12.2351
-13.0518
-15.0021
-17.9223
-21.5516
-24.9242
0.487988
0.17958
-0.395506
-4.30607
5.40922
3.20421
-19.4513
25.6744
-5.66554
-4.91027
-0.838756
-0.522911
-0.65649
-2.67265
-3.15665
-4.51103
-6.44577
-9.0978
-12.8372
-17.0708
-22.9276
-29.2861
-36.3809
-43.4861
-49.0256
-50.8568
-46.7312
-31.5278
-6.67023
30.1755
68.3013
106.11
137.445
160.188
174.603
181.763
184.962
182.912
183.033
179.774
164.824
160.222
149.338
141.07
135.239
128.02
121.342
115.628
109.372
103.385
97.5125
91.7331
86.1139
80.4878
74.6505
68.633
62.4104
56.1164
49.8368
43.5928
37.475
31.4843
25.6383
20.2133
15.3258
10.8975
6.99392
3.65574
0.805436
-1.55029
-3.49919
-5.04144
-6.0522
-6.70243
-6.60352
-6.08028
-4.54892
-2.19675
1.19813
6.52474
12.86
21.2803
32.3541
43.9516
58.9329
74.8619
90.3115
111.723
118.897
135.506
119.151
77.6643
44.0066
24.2376
10.4118
0.180265
-4.2344
-6.76015
-8.43319
-7.90885
-5.22676
-2.00837
-1.21972
-0.165762
0.981004
1.38507
1.64906
1.92154
2.17649
2.41287
2.61206
2.72149
2.71563
2.6231
2.46074
2.24964
2.11035
1.82684
1.74225
1.49926
1.39886
1.14467
1.15815
0.465449
0.621508
0.596127
0.789313
0.84325
0.920803
0.468524
0.0758408
-0.735277
-1.69744
-2.93891
-4.62077
-6.38416
-8.75034
-11.8473
-14.6666
-16.9314
-18.3441
-18.2525
-17.3133
-16.5594
-14.9291
-11.729
-9.26846
-7.96779
-3.49432
4.48833
7.50655
11.8214
21.7282
26.4238
29.2568
30.7757
31.0982
30.3234
28.5383
25.8301
22.2963
18.0721
13.3378
8.35715
3.44338
-1.0412
-4.74097
-6.09809
-8.61764
-11.5877
-12.5987
-13.0604
-13.1089
-12.9749
-12.9794
-13.5447
-14.9515
-17.2892
-20.2777
-23.1721
0.203563
0.126588
-0.092005
-0.305951
0.658538
-0.408085
-0.20369
0.73364
-0.379413
-0.172163
-0.0772612
-2.41359
5.23011
-0.377238
-3.22968
0.963931
-0.156501
-0.586699
-1.32455
-1.4813
-2.29188
-2.87358
-4.3199
-5.16456
-6.87855
-7.66039
-7.2142
-6.29593
1.20223
16.1415
41.5181
76.5942
125.999
178.543
232.704
273.35
303.886
311.835
305.636
290.143
267.584
246.482
214.187
198.893
201.476
163.263
149.808
138.826
124.312
114.367
103.732
94.4566
85.9363
77.9845
70.0319
62.4658
54.7193
47.2468
39.9963
32.6754
25.6539
18.513
11.8183
5.49645
-0.266784
-5.47879
-10.2645
-14.3902
-17.8243
-20.6974
-23.0675
-24.8554
-25.7487
-26.1716
-25.2357
-23.931
-20.9065
-17.1161
-11.8737
-4.25096
3.89408
15.1747
28.1976
41.683
57.2427
74.0554
85.442
96.452
100.124
67.1142
44.1146
24.1783
11.3454
2.02722
-2.02167
-4.24469
-7.87904
-7.23901
-7.46715
-5.16743
-2.09127
-1.46012
-0.459028
0.619934
0.92665
1.20609
1.54381
1.87526
2.17271
2.44125
2.64101
2.71807
2.65673
2.52752
2.3291
2.09986
2.00215
1.71917
1.63427
1.60778
1.49509
0.978922
1.71089
2.01417
1.97624
2.16296
2.40186
2.50184
2.20052
2.37195
1.81288
1.21272
0.429003
-0.507978
-2.07946
-2.00405
-3.63111
-7.23796
-10.6913
-14.6468
-18.6051
-20.6945
-20.6115
-19.8132
-18.0835
-14.5141
-11.1765
-9.48678
-5.49374
3.43928
6.80776
11.351
20.9467
26.9825
30.3777
32.17
32.6595
31.9851
30.2476
27.5375
23.9486
19.614
14.6998
9.46515
4.26239
-0.542336
-4.34772
-5.70085
-8.97889
-12.1293
-13.3605
-13.9407
-14.0455
-13.9031
-13.812
-14.1228
-15.1268
-16.8617
-19.2214
-21.5588
0.0600131
0.0644565
0.0159605
0.000189043
0.0706403
0.0121751
0.0502882
0.0737256
0.0242807
0.0601456
0.0935523
-0.0954189
0.489724
-0.13735
0.0633727
0.191213
-0.555615
0.83173
0.692438
-1.27802
0.999579
0.440631
-0.0109094
0.250454
-0.207263
0.220731
-0.0948319
0.314895
0.976498
2.96094
8.04296
15.2779
31.6226
52.9709
86.8703
128.251
178.222
224.854
269.306
304.266
318.875
330.852
314.184
292.322
265.741
231.287
197.181
174.931
135.467
129.508
95.2712
81.1951
67.5163
54.7733
42.3063
32.0577
21.0626
12.0775
4.29476
-4.24611
-11.6876
-18.2423
-24.6141
-30.7163
-36.4324
-40.7663
-45.0378
-48.6777
-51.2255
-53.0613
-54.4519
-55.1699
-54.5807
-53.4875
-50.3589
-46.9934
-41.4923
-35.5684
-27.3446
-16.8119
-6.53156
8.46544
22.2134
36.6274
50.6917
64.6623
68.9972
49.6941
32.0996
22.0129
9.42018
2.61547
-1.61327
-5.83966
-5.81822
-8.48695
-8.36171
-7.61429
-4.86981
-2.0509
-1.45566
-0.968978
0.241802
0.412002
0.736022
1.12839
1.54045
1.91564
2.24917
2.53251
2.71377
2.73727
2.60396
2.45793
2.23676
1.96685
1.92046
1.83297
1.59751
1.60881
2.47392
2.71099
2.08298
2.1953
3.73852
3.2545
3.86408
5.05969
5.11281
6.73026
7.91782
8.92357
9.65226
9.53283
7.71743
5.3974
2.31297
-2.95826
-5.55593
-7.4653
-13.1319
-18.5586
-21.6131
-22.5749
-21.5479
-17.872
-13.6781
-11.3264
-7.54037
1.03933
7.52206
10.6216
20.0619
27.3303
31.3543
33.4922
34.1946
33.6568
31.9986
29.316
25.7021
21.2835
16.2105
10.737
5.24068
0.152799
-3.86792
-5.2911
-9.08973
-12.6353
-14.0793
-14.8071
-15.0002
-14.8758
-14.7082
-14.8021
-15.4337
-16.6349
-18.3983
-20.1595
0.0509834
0.0419128
0.0263453
0.0236045
0.0383302
0.041135
0.050858
0.0583111
0.0628982
0.0793668
0.0882634
0.109478
0.157892
0.128307
0.187315
0.238257
0.162844
0.454271
0.348856
0.179311
1.03646
0.0636934
0.680197
0.621794
0.470057
0.647395
0.618865
0.764364
0.91358
1.18988
2.00859
2.79106
5.50775
8.76394
15.3279
24.3018
39.0722
56.7268
81.1543
107.933
136.178
164.914
188.195
201.334
208.316
202.257
188.365
167.035
137.431
108.859
79.2956
51.4218
26.4233
6.06677
-13.671
-25.9923
-46.0294
-53.0118
-61.9727
-70.2829
-78.5771
-83.2604
-88.0182
-91.7878
-99.3327
-98.3258
-99.706
-101.868
-101.397
-100.008
-98.6124
-96.5582
-92.6504
-88.3827
-80.8607
-74.1006
-65.2987
-55.748
-43.1502
-29.5253
-16.3444
1.49508
11.9622
27.3453
27.369
21.1727
14.9076
11.4049
6.06587
0.188905
-1.025
-4.81309
-4.92499
-8.02976
-8.38646
-8.30937
-6.85906
-4.56335
-2.22965
-1.77233
-1.31286
-0.26331
-0.1228
0.232267
0.68805
1.16452
1.62436
2.03226
2.40018
2.6724
2.81108
2.77315
2.55548
2.39938
2.2355
1.87072
1.62102
2.73754
2.23799
2.97528
1.93681
2.57515
4.47183
2.53084
5.55952
5.7233
8.76455
12.4381
14.2886
20.5986
23.5549
28.7745
32.7292
32.8625
32.7755
29.4596
24.3699
13.1713
2.48587
0.168853
-6.7275
-10.4084
-17.0303
-21.9488
-23.6667
-21.1018
-16.5628
-13.5232
-9.73604
-0.936327
6.94221
10.1638
17.6593
28.4567
32.2929
34.7435
35.695
35.3283
33.7801
31.1556
27.5499
23.081
17.8828
12.2008
6.41503
0.996133
-3.2604
-4.78011
-8.90539
-13.0785
-14.7315
-15.6301
-15.9386
-15.8593
-15.642
-15.5557
-15.863
-16.5918
-17.8043
-19.0091
0.0400993
0.0341271
0.0276565
0.0280727
0.0350019
0.0417153
0.0494193
0.0573799
0.0665519
0.0785655
0.0917659
0.112056
0.132758
0.15268
0.187896
0.223985
0.264757
0.345823
0.391832
0.364864
0.426297
0.419795
0.425842
0.561444
0.437714
0.56493
0.593641
0.645607
0.705174
0.736501
0.921315
1.01076
1.50967
2.21968
3.39965
4.83532
7.37275
10.5721
15.3396
21.5267
28.747
37.9972
47.7302
57.4137
66.6413
72.2775
75.9153
73.4417
67.2829
54.5731
36.7532
15.2799
-9.74755
-34.8669
-61.496
-84.0981
-105.891
-124.345
-137.807
-149.976
-158.091
-162.183
-167.144
-161.896
-194.221
-160.64
-160.456
-165.552
-159.554
-151.706
-145.724
-139.042
-130.105
-120.527
-105.646
-97.8306
-85.1704
-68.7641
-51.8108
-35.211
-19.6182
-8.04833
-2.73995
0.438587
1.48672
2.61064
-0.846892
-4.18301
-3.28236
-5.02018
-7.11454
-6.81309
-7.46965
-8.27044
-7.56748
-5.95169
-4.34476
-2.3796
-1.91284
-1.96621
-0.803201
-0.611069
-0.240005
0.236367
0.774932
1.29764
1.76971
2.21329
2.62449
2.84364
2.89866
2.81769
2.56299
2.30867
2.29153
2.11814
1.27864
1.73884
1.11819
4.71177
5.41256
-0.883119
10.2679
4.42545
10.7755
13.5615
21.198
28.5031
35.1433
48.5312
53.2154
69.7612
73.1353
76.2607
81.7597
79.8408
73.2731
54.4084
36.7634
20.9847
2.81265
-2.54918
-9.23928
-15.1215
-21.8664
-22.4623
-18.9262
-15.7207
-12.0436
-3.20018
6.31817
9.71377
15.7331
28.7098
33.112
35.9129
37.1419
36.9722
35.5593
33.0217
29.4632
24.9912
19.7212
13.8861
7.83443
2.03284
-2.49527
-4.14448
-8.33989
-13.4271
-15.2655
-16.3796
-16.8291
-16.8184
-16.5782
-16.3478
-16.3797
-16.6988
-17.4155
-18.1084
0.0306939
0.0288773
0.0274504
0.0290638
0.0334728
0.038966
0.0452663
0.0524248
0.0608877
0.0712209
0.0837012
0.0996189
0.118009
0.140512
0.169593
0.204686
0.253662
0.305522
0.294263
0.304396
0.32889
0.374197
0.39739
0.556168
0.427247
0.593089
0.671787
0.728936
0.776531
0.798665
0.854767
0.870107
0.961129
1.04699
1.27148
1.52292
1.99684
2.79491
3.64734
4.83372
6.14268
7.98747
9.73354
11.7818
13.8289
15.582
16.7112
16.9848
16.0045
13.2301
7.79613
0.370683
-10.306
-23.3047
-38.9436
-56.5272
-75.3114
-95.6024
-114.654
-133.216
-150.571
-162.522
-175.342
-181.964
-187.973
-187.557
-178.239
-206.014
-186.21
-167.141
-157.808
-146.638
-134.59
-115.843
-102.374
-78.933
-60.352
-45.1101
-33.0172
-23.2242
-16.2066
-11.5629
-8.33226
-7.07406
-6.46005
-8.13912
-5.01841
-6.58487
-9.69385
-6.64442
-7.36813
-8.23103
-8.10544
-7.09722
-5.37177
-3.98605
-3.178
-2.25139
-1.81245
-1.88945
-1.2869
-0.677219
-0.157751
0.389828
0.950048
1.48588
1.97887
2.46643
2.89886
3.02272
2.91491
2.81084
2.7702
2.25979
1.87208
2.73618
4.17514
4.12389
-0.233338
3.34893
13.7464
1.3395
9.01986
14.887
22.834
30.9504
44.7502
56.2524
71.4307
86.7564
97.0351
119.611
124.974
129.591
139.867
145.02
145.773
134.784
107.626
70.9015
38.9043
12.6493
2.30968
-6.48987
-15.3543
-19.8005
-19.2309
-17.119
-13.981
-5.46102
5.54803
9.19133
14.7125
27.8501
33.7176
36.9623
38.4825
38.5168
37.2512
34.8282
31.3691
26.9682
21.716
15.8221
9.56609
3.45499
-1.56939
-3.38469
-7.2272
-13.6277
-15.6087
-16.9741
-17.6194
-17.708
-17.4738
-17.1377
-16.9395
-16.9083
-17.1887
-17.4293
0.0261346
0.0259411
0.026137
0.0276226
0.0304288
0.0341743
0.0387378
0.0442294
0.0509413
0.0592485
0.069558
0.0824625
0.0983717
0.118251
0.143643
0.175137
0.221587
0.219126
0.220938
0.275299
0.33705
0.36826
0.399335
0.48262
0.514534
0.5825
0.639961
0.695137
0.741174
0.784247
0.821019
0.837916
0.858579
0.851943
0.853155
0.887447
0.940759
1.0172
1.1511
1.35027
1.60943
1.99599
2.28588
2.80894
2.88649
3.12877
3.04655
2.83975
2.23758
1.38226
-0.2959
-2.23429
-4.93084
-8.67059
-12.9361
-18.8291
-24.8378
-32.869
-40.1618
-48.4477
-56.8578
-64.6667
-72.887
-77.6915
-83.9283
-85.572
-86.892
-87.0275
-91.5191
-67.7363
-69.0821
-67.1599
-61.3857
-52.4193
-44.4362
-36.5932
-29.7738
-23.6425
-19.5447
-15.5261
-13.0091
-11.2031
-10.3272
-8.84353
-8.41671
-6.26404
-10.7874
-7.4271
-7.46199
-8.44404
-8.35597
-7.63945
-6.34959
-5.08428
-3.93486
-3.20647
-3.09546
-2.36014
-1.96445
-1.93711
-1.50026
-0.52389
0.0728975
0.637455
1.16582
1.71758
2.29534
2.79097
3.11934
3.20322
2.78274
2.59153
3.2164
2.33675
2.51643
0.554604
0.809161
8.75845
-4.33776
1.70748
17.4073
12.9019
20.154
31.1515
44.3774
59.7295
77.0621
91.8091
109.962
119.194
133.898
152.078
157.6
163.936
173.329
184.522
189.932
188.829
191.4
166.675
112.479
57.3096
25.8915
3.35786
-3.74056
-15.1408
-16.1083
-16.4316
-14.8421
-7.04128
4.73261
8.47948
14.0639
26.5561
33.9522
37.7876
39.5813
39.7874
38.6567
36.3764
33.0993
28.8997
23.8284
18.0317
11.7536
5.44568
-0.309968
-2.41052
-5.61696
-13.3116
-15.6409
-17.3079
-18.1897
-18.4369
-18.2576
-17.8563
-17.4796
-17.1613
-17.0713
-16.9288
0.0230315
0.023013
0.02323
0.0239991
0.0254205
0.0274879
0.0302486
0.0338514
0.0385449
0.0446515
0.0525673
0.0627911
0.0759097
0.0926694
0.114497
0.140863
0.178102
0.173716
0.209101
0.258022
0.280951
0.32564
0.366624
0.414584
0.460895
0.512239
0.561007
0.609512
0.651836
0.693808
0.724005
0.74706
0.759155
0.751233
0.73614
0.685298
0.649502
0.596585
0.527496
0.503258
0.451572
0.38398
0.403578
0.360802
0.255822
0.181088
0.00402297
-0.255649
-0.596781
-1.08851
-1.64031
-2.68806
-3.77769
-5.08931
-6.48628
-8.22353
-9.95509
-12.0001
-14.0389
-16.3227
-18.5573
-20.9217
-23.2065
-25.2913
-27.7076
-28.9053
-29.7578
-31.2025
-31.2124
-28.4004
-27.854
-30.0774
-27.1299
-22.7792
-21.1026
-19.0169
-17.1021
-15.1565
-13.8998
-12.0911
-10.8451
-12.1707
-9.01009
-9.35644
-9.06074
-8.93705
-8.73277
-8.64146
-8.32231
-7.73485
-6.8522
-5.7799
-4.90682
-4.23443
-3.68535
-3.45963
-3.17061
-2.41623
-2.24373
-1.01439
-1.70107
-0.360554
0.312568
0.915722
1.39779
2.01527
2.757
3.15946
3.13571
3.32173
2.51096
2.07543
1.11772
2.73001
4.14285
3.57435
-9.44557
25.9668
-5.70182
8.17771
17.7345
27.2728
40.858
56.8231
74.592
91.6138
106.195
117.824
126.946
131.565
143.3
147.627
155.693
163.979
175.143
189.429
202.803
214.876
223.283
222.755
205.674
147.972
77.2859
32.203
8.25077
-2.81727
-11.9775
-13.895
-13.8105
-7.11415
4.47055
8.11853
13.1766
25.2072
33.802
38.1616
40.1134
40.3839
39.3367
37.2256
34.2685
30.5177
25.9384
20.5541
14.5781
8.29607
2.32543
-1.60577
-3.92007
-11.5696
-15.1016
-17.191
-18.3874
-18.8507
-18.7914
-18.3979
-17.9039
-17.3646
-16.9823
-16.5229
0.019669
0.0192091
0.0188273
0.0186627
0.018821
0.0193965
0.0205115
0.0223437
0.025137
0.029204
0.0349346
0.0428097
0.0534103
0.0674191
0.0859289
0.108275
0.137659
0.158817
0.193586
0.211725
0.23779
0.278264
0.311147
0.348626
0.388512
0.430268
0.471564
0.512275
0.549453
0.584663
0.612006
0.632959
0.642039
0.638974
0.621595
0.585032
0.53658
0.460145
0.376635
0.241221
0.11784
-0.0105949
-0.174877
-0.326662
-0.538475
-0.751743
-0.984414
-1.23838
-1.53219
-1.90044
-2.25621
-2.78556
-3.3819
-4.04459
-4.77903
-5.56471
-6.42182
-7.32085
-8.27525
-9.31683
-10.2663
-11.4715
-12.655
-13.168
-13.9328
-14.4565
-14.9908
-15.5131
-15.8843
-15.8291
-16.0223
-16.0641
-15.7279
-15.0069
-14.2286
-13.4269
-12.654
-11.886
-11.3395
-10.6538
-10.1786
-9.7519
-9.4929
-9.25706
-9.00254
-8.73876
-8.36672
-7.80629
-7.10619
-6.35513
-5.62026
-5.034
-4.60889
-4.20563
-3.86086
-3.6379
-3.10498
-2.358
-2.50517
-0.518529
-0.956709
-0.128285
0.550627
1.25688
1.69151
2.3832
3.29389
3.53914
2.98351
2.79277
4.27094
4.96696
1.99402
-3.47163
12.1663
-3.22255
-8.58173
16.6854
12.5746
18.6229
32.0984
49.5273
68.0636
85.4221
101.037
110.674
117.15
120.397
121.366
124.036
125.555
129.369
135.689
145.069
158.268
174.747
193.838
214.26
230.794
245.694
249.864
219.792
155.74
91.9526
43.7553
13.4813
1.03306
-9.74973
-12.0858
-6.3736
4.64058
8.05648
12.8725
24.1513
33.1401
37.6102
39.427
39.5353
38.4729
36.5564
34.0866
31.187
27.641
23.2045
17.8331
12.2231
6.28296
0.68757
-1.91223
-7.68208
-13.677
-16.2733
-17.9282
-18.7322
-18.8941
-18.5864
-18.078
-17.3955
-16.8157
-16.1
0.0158873
0.0148443
0.0137748
0.0127683
0.0119256
0.0113632
0.0112277
0.0117112
0.0130621
0.0155941
0.0196953
0.0258361
0.0345695
0.0465203
0.0624818
0.0822503
0.108174
0.137286
0.164157
0.177015
0.202475
0.230296
0.259259
0.290676
0.323853
0.358138
0.392404
0.425897
0.457117
0.485624
0.50864
0.52546
0.532598
0.529446
0.51381
0.482929
0.43786
0.371243
0.287009
0.177223
0.0481428
-0.0999578
-0.26348
-0.467047
-0.679135
-0.91426
-1.16232
-1.4339
-1.72385
-2.04872
-2.38623
-2.76033
-3.17101
-3.64999
-4.14924
-4.66248
-5.21893
-5.77302
-6.36959
-7.01257
-7.582
-8.29593
-9.00401
-9.45693
-9.92119
-10.3013
-10.6669
-10.9694
-11.1944
-11.3888
-11.548
-11.577
-11.5151
-11.3482
-11.1063
-10.8004
-10.5136
-10.233
-9.96673
-9.71006
-9.46506
-9.22366
-8.95619
-8.64252
-8.26027
-7.81401
-7.30794
-6.74872
-6.24546
-5.76752
-5.33134
-5.02752
-4.63298
-4.18992
-3.91555
-3.35473
-2.46556
-2.17419
-2.54907
-0.438506
-0.208307
0.265541
0.853079
1.75828
2.17293
2.68259
3.52092
4.07983
2.88422
2.43138
-2.12498
3.48845
11.3775
-21.0593
26.6046
-8.99849
0.868418
8.92859
20.9008
35.7171
55.57
75.2414
91.1157
102.801
109.972
110.347
110.616
106.751
104.816
100.76
100.007
103.131
109.713
120.479
135.407
153.869
176.279
200.972
223.832
246.292
265.104
260.827
215.04
149.648
94.2795
45.8283
19.0578
0.274936
-6.23597
-4.23654
4.91914
7.85495
12.1888
22.4002
31.1032
35.0248
36.1606
35.5533
34.2696
32.7277
31.4216
30.4266
29.1953
27.2286
23.8202
18.6511
12.4242
6.03844
0.275749
-3.1457
-10.1573
-13.9788
-16.3583
-17.7284
-18.3006
-18.233
-17.8355
-17.1204
-16.4518
-15.5646
0.0117477
0.0101504
0.00846469
0.00676339
0.00514326
0.00372547
0.00266415
0.00215676
0.00245374
0.00386706
0.00677725
0.0116359
0.0189562
0.0292875
0.043202
0.0609419
0.084307
0.118733
0.135223
0.140546
0.171619
0.191838
0.21526
0.240847
0.267986
0.296039
0.324194
0.351625
0.377301
0.400269
0.418886
0.431802
0.437544
0.434326
0.420345
0.394175
0.354882
0.299356
0.226266
0.134374
0.0229727
-0.107527
-0.257359
-0.4309
-0.626253
-0.84399
-1.07765
-1.33485
-1.60518
-1.89555
-2.20416
-2.5299
-2.86768
-3.238
-3.62704
-4.02443
-4.44599
-4.86474
-5.29236
-5.73898
-6.17725
-6.65308
-7.10807
-7.50926
-7.88338
-8.22012
-8.52134
-8.77763
-8.99542
-9.17214
-9.3072
-9.40007
-9.44086
-9.44627
-9.4181
-9.35234
-9.26506
-9.15202
-9.02263
-8.85237
-8.65428
-8.40938
-8.11713
-7.79668
-7.42831
-7.06348
-6.67483
-6.28701
-5.94831
-5.58071
-5.22233
-4.89944
-4.39395
-3.99904
-3.59227
-2.71988
-2.4463
-1.45602
-1.84505
-0.705852
0.0363558
0.694176
1.16776
2.40328
3.09064
2.27044
2.63657
0.983995
3.57144
4.17921
1.79072
-7.73228
16.7708
-23.1751
10.3091
3.29992
6.53247
17.5061
36.4775
56.8799
78.6628
92.0607
100.43
96.9568
96.0143
88.9237
84.6037
75.493
70.5123
68.4035
69.934
74.7718
82.8033
95.4037
112.541
133.386
157.895
184.98
211.548
237.596
263.913
274.718
250.857
199.022
138.936
83.9396
43.2275
18.9857
2.47933
0.447277
5.62364
7.5694
11.2352
20.4141
26.2769
27.8051
27.0452
25.6974
24.6195
23.9859
25.0291
27.4487
29.9776
31.8472
31.988
29.3386
23.6723
16.3758
8.94379
1.30507
-2.6753
-9.88757
-13.4889
-15.6719
-16.8657
-17.2127
-17.0606
-16.3611
-15.6791
-14.6634
0.00656311
0.00446808
0.00226393
1.80013e-05
-0.00217553
-0.00419604
-0.00588959
-0.00706088
-0.00746562
-0.00680405
-0.00471724
-0.000790421
0.00542807
0.0143851
0.0264715
0.0420235
0.0618723
0.0886595
0.0999621
0.11317
0.134036
0.15311
0.173465
0.194914
0.217352
0.240426
0.26356
0.286034
0.307015
0.325566
0.340544
0.350789
0.355083
0.352096
0.340547
0.318986
0.28635
0.240961
0.181321
0.106444
0.0152489
-0.0923217
-0.217474
-0.361107
-0.523956
-0.706457
-0.906225
-1.12478
-1.36065
-1.61254
-1.88087
-2.16404
-2.45943
-2.76993
-3.09057
-3.41924
-3.76186
-4.10917
-4.45555
-4.80174
-5.1512
-5.50746
-5.85481
-6.19419
-6.51884
-6.82551
-7.10484
-7.3596
-7.58606
-7.78397
-7.95227
-8.09123
-8.19638
-8.26202
-8.30477
-8.30052
-8.26702
-8.18882
-8.08902
-7.94215
-7.77831
-7.57136
-7.34301
-7.09049
-6.80982
-6.54407
-6.22829
-5.94197
-5.60714
-5.246
-4.91363
-4.47899
-4.00176
-3.70256
-2.8052
-2.52264
-2.55535
-0.945449
-0.98914
-0.371708
0.560914
1.43636
1.49426
2.78549
4.42048
3.34394
4.98623
1.32034
-3.78263
14.5276
-12.6399
-21.2284
19.1346
-9.13569
-5.69851
1.64678
13.9711
33.2303
57.0447
76.0635
83.8011
87.6416
87.8747
83.6606
78.8019
67.377
56.9811
44.2184
37.7594
36.5356
40.3096
47.4326
57.1848
72.4812
92.7302
116.38
142.843
171.161
199.33
227.152
255.956
274.687
265.697
228.069
173.677
116.496
69.4077
36.0138
15.6819
7.77124
6.47871
7.9936
11.6092
15.5918
14.3371
10.7229
7.92797
8.05472
10.1114
11.5652
14.8258
22.5303
30.6599
37.1022
41.0731
41.6892
38.9312
32.265
23.044
13.8681
3.91232
-0.497312
-7.20769
-11.3774
-13.954
-15.0792
-15.429
-14.8742
-14.2538
-13.1123
0.000326305
-0.00208277
-0.00457621
-0.00708796
-0.00952614
-0.0117739
-0.0136838
-0.0150717
-0.0157113
-0.0153307
-0.0136125
-0.0102031
-0.00474107
0.00308148
0.0134289
0.0262339
0.041371
0.0586184
0.0694371
0.0841678
0.104178
0.120499
0.138304
0.156854
0.175929
0.195278
0.214494
0.233012
0.250192
0.265255
0.277332
0.285474
0.288753
0.286046
0.276489
0.258856
0.231965
0.194871
0.146666
0.0860752
0.0122172
-0.0752961
-0.17724
-0.294262
-0.426955
-0.57561
-0.739891
-0.919914
-1.11509
-1.32495
-1.54903
-1.78672
-2.0367
-2.29818
-2.56958
-2.84935
-3.13718
-3.43085
-3.72659
-4.02321
-4.31961
-4.61219
-4.89891
-5.18061
-5.45344
-5.71743
-5.96419
-6.19866
-6.41043
-6.60627
-6.77553
-6.92304
-7.0432
-7.13388
-7.2017
-7.22624
-7.23973
-7.19762
-7.1541
-7.04919
-6.94614
-6.78989
-6.62909
-6.43438
-6.21805
-5.98984
-5.70975
-5.45528
-5.09128
-4.79392
-4.41597
-3.93305
-3.69647
-2.89426
-2.71547
-1.53809
-2.82754
-0.445709
-0.318098
0.0844002
1.44121
3.29987
1.79896
2.61832
-2.44884
0.0572802
7.07338
0.815706
-21.8689
26.4101
-12.959
-17.641
-15.3125
-14.4307
-10.0948
4.81163
27.7639
52.1092
64.7345
74.1776
78.0417
78.5248
77.8921
73.2837
61.9843
46.5529
33.8959
19.0191
13.3112
3.62484
12.5327
24.4525
35.1342
54.4714
78.8417
105.738
133.913
162.991
191.683
220.141
248.797
269.49
268.577
241.345
194.177
140.327
91.3947
52.1844
27.1452
15.2106
10.203
6.75524
3.39713
0.488123
-6.6076
-19.4128
-19.5376
-16.0847
-7.11284
-1.07535
4.31507
17.8934
35.8457
45.3837
52.7271
56.3866
55.3522
49.7671
40.6238
29.5337
18.185
7.91143
0.880093
-3.04036
-10.0246
-11.7958
-12.7402
-12.4234
-11.9562
-10.7257
-0.00660659
-0.00900307
-0.0114182
-0.0137868
-0.0160221
-0.0180157
-0.0196341
-0.0207146
-0.0210623
-0.0204501
-0.0186226
-0.0153122
-0.0102747
-0.003367
0.0053582
0.0155663
0.0272762
0.0402756
0.0494175
0.0631443
0.0826361
0.0971069
0.112381
0.128159
0.144192
0.160205
0.175888
0.190775
0.204628
0.216566
0.225911
0.231921
0.233883
0.230533
0.221501
0.205894
0.183304
0.152282
0.112033
0.0617802
0.000790237
-0.0714799
-0.155539
-0.251852
-0.360817
-0.482706
-0.617591
-0.76542
-0.925985
-1.09898
-1.28394
-1.4805
-1.68795
-1.90554
-2.13228
-2.36707
-2.60903
-2.85686
-3.10866
-3.36239
-3.61738
-3.8715
-4.1222
-4.3691
-4.60949
-4.84526
-5.0681
-5.28459
-5.48122
-5.67025
-5.83352
-5.98488
-6.1097
-6.21208
-6.29549
-6.33724
-6.37946
-6.35368
-6.35113
-6.26414
-6.20468
-6.07752
-5.94278
-5.79439
-5.57731
-5.3934
-5.11073
-4.88695
-4.50356
-4.28981
-3.77978
-3.62957
-2.8033
-2.49039
-2.85118
-1.05411
-0.974974
-0.0548829
0.686572
-0.139689
2.26719
-0.0897607
1.09585
4.52943
2.23847
-15.5891
24.806
-11.1705
-36.1982
4.31499
-19.5522
-31.9355
-31.0528
-27.7294
-8.38853
20.056
39.0071
55.0615
62.1947
71.0338
71.4119
69.6193
56.6309
39.2913
18.591
-0.354726
-14.1157
-18.9879
-28.0239
-21.6039
-12.4109
5.0727
26.0187
38.8964
71.4097
102.653
132.067
160.855
188.695
215.922
242.226
261.542
263.024
241.811
201.123
149.783
99.4967
61.5679
37.8886
18.9579
1.47988
-4.69675
-15.6165
-40.5345
-48.1666
-50.9588
-47.8526
-36.0428
-20.2557
-8.36609
1.42692
26.3911
43.9829
56.2966
65.2231
70.3017
70.7216
66.1405
57.2272
45.2835
32.1093
19.5534
9.08023
1.97276
-1.47976
-7.98348
-9.16877
-9.01425
-8.74503
-7.55584
-0.0134353
-0.015391
-0.0172733
-0.0190233
-0.0205656
-0.021808
-0.0226405
-0.0229332
-0.0225361
-0.0212817
-0.0189939
-0.0155055
-0.0106957
-0.00454898
0.00284925
0.0111471
0.020416
0.0322672
0.0398926
0.0519955
0.0659672
0.0787208
0.0915522
0.104459
0.117366
0.129734
0.141693
0.15289
0.162709
0.17087
0.176816
0.17998
0.179537
0.175675
0.166832
0.152299
0.131294
0.103434
0.0679432
0.0242177
-0.0283052
-0.0900964
-0.161551
-0.243001
-0.334715
-0.436872
-0.549548
-0.672709
-0.806228
-0.949905
-1.10346
-1.26656
-1.43878
-1.61958
-1.80831
-2.00423
-2.20654
-2.41394
-2.62552
-2.83983
-3.05652
-3.27368
-3.49028
-3.70539
-3.91683
-4.1259
-4.32549
-4.52199
-4.70193
-4.87863
-5.03167
-5.17923
-5.29949
-5.40605
-5.49104
-5.54169
-5.59325
-5.57551
-5.59252
-5.51059
-5.47638
-5.36318
-5.23417
-5.13864
-4.87523
-4.79994
-4.41973
-4.32274
-3.87762
-3.6606
-3.38534
-2.83526
-2.81501
-1.4805
-1.63572
-0.685614
0.0318919
0.0613098
2.83764
2.93745
2.52617
-0.0377712
-8.12386
6.97345
-2.55278
-31.2634
20.8852
-23.1231
-35.2447
-49.8712
-50.0921
-58.6923
-46.1018
-13.0052
14.5746
31.5274
42.5515
56.0691
58.6462
59.9189
51.0227
36.9729
15.3928
-4.53024
-28.7293
-37.5296
-50.127
-53.8385
-50.6856
-40.9783
-25.2341
-5.0765
18.5174
35.0365
66.6095
108.939
136.519
164.473
190.661
214.236
232.893
242.577
247.036
227.441
188.606
142.63
102.859
69.9466
33.5386
-2.78677
-16.6121
-41.745
-83.0946
-89.0767
-86.9175
-75.8451
-59.0661
-37.6961
-18.697
-7.29847
19.0855
39.0526
54.5248
66.5156
75.1611
79.9549
80.4282
76.4238
68.1004
56.3608
42.8056
29.3345
17.7189
8.85253
2.1044
-0.803251
-4.98605
-4.87914
-4.782
-3.81584
-0.0190091
-0.0201024
-0.0210345
-0.0217617
-0.0222308
-0.022377
-0.0221253
-0.0213916
-0.0200861
-0.0181202
-0.0154142
-0.0118982
-0.00747912
-0.002349
0.00345844
0.0097952
0.0169285
0.025832
0.0315078
0.041047
0.0494005
0.0586601
0.0679486
0.0771646
0.0861864
0.0953284
0.103835
0.111545
0.118
0.122814
0.125556
0.125728
0.122852
0.116108
0.10515
0.0894772
0.068463
0.0415548
0.00824278
-0.0319383
-0.079401
-0.134496
-0.19751
-0.268668
-0.348133
-0.435994
-0.532275
-0.636929
-0.749851
-0.870882
-0.999844
-1.1365
-1.28051
-1.43142
-1.58873
-1.75193
-1.92029
-2.09251
-2.26811
-2.44629
-2.62736
-2.80969
-2.99324
-3.17617
-3.35781
-3.5378
-3.71225
-3.88437
-4.04468
-4.20248
-4.34114
-4.47638
-4.58559
-4.68804
-4.76149
-4.81694
-4.85465
-4.84771
-4.85257
-4.7812
-4.74823
-4.6358
-4.52863
-4.42448
-4.18026
-4.10353
-3.74262
-3.53389
-3.42664
-2.87681
-2.03671
-2.52282
-1.75295
-0.426786
-2.56272
0.983185
1.21223
2.62779
1.31769
-9.34835
7.08729
-1.55612
-31.7572
10.8399
-13.4739
-29.8333
-65.3461
-38.6916
-91.2174
-93.2451
-78.3888
-34.2646
-3.97822
7.80678
27.7054
38.0308
43.8108
49.6995
41.8579
30.0432
12.0068
-5.96561
-31.085
-41.0983
-55.369
-62.2813
-63.943
-61.1916
-54.249
-43.0815
-27.3429
-7.00946
17.5753
37.9112
72.8246
111.003
138.74
165.76
190.108
210.613
225.055
230.828
211.857
200.038
169.984
133.418
89.6516
34.0313
-16.3805
-41.6366
-100.099
-120.841
-123.184
-112.089
-93.9918
-70.8856
-41.9881
-28.9849
-5.54952
15.7512
33.7809
49.4581
62.1962
72.1685
79.2911
83.1783
83.3771
79.5268
71.7188
60.6492
47.6985
34.7108
23.3242
14.2702
7.8472
3.49561
0.844244
-0.141929
-0.609229
0.194841
-0.022399
-0.0225107
-0.0224214
-0.0221048
-0.0215332
-0.0206727
-0.0194888
-0.0179526
-0.0160496
-0.0137727
-0.0111042
-0.00803749
-0.00423046
-0.000114591
0.0041808
0.00862772
0.0134135
0.0192043
0.0228222
0.0276064
0.0347358
0.0390309
0.0435106
0.0480387
0.0524348
0.0563689
0.0597892
0.0623697
0.0638483
0.0638884
0.0621154
0.0580537
0.0512947
0.041414
0.0279345
0.0103834
-0.0116995
-0.0387576
-0.0712081
-0.10943
-0.153752
-0.204447
-0.261723
-0.325726
-0.396538
-0.474179
-0.558616
-0.649754
-0.747506
-0.851605
-0.962016
-1.07846
-1.20069
-1.32819
-1.46035
-1.59674
-1.73629
-1.87778
-2.02192
-2.16884
-2.31897
-2.47033
-2.62398
-2.7765
-2.93048
-3.0815
-3.23201
-3.37762
-3.51781
-3.65186
-3.77374
-3.88812
-3.982
-4.06713
-4.11973
-4.163
-4.16774
-4.15568
-4.11344
-4.04064
-3.97773
-3.82932
-3.76255
-3.55687
-3.34465
-3.19951
-2.78933
-2.53381
-2.40081
-1.80567
-1.02943
-1.91795
-0.0640654
-0.8882
3.59334
2.24171
-9.38366
-1.7201
9.21111
-24.2622
-6.85321
0.731567
-59.2351
-54.8484
-53.5813
-109.07
-107.046
-126.575
-72.7402
-21.3809
-8.82685
11.0623
22.447
32.3179
42.5627
39.8618
30.3606
18.3979
5.09674
-11.0954
-32.0307
-41.3971
-53.1358
-57.3226
-57.7402
-55.6255
-51.8256
-46.3103
-38.6857
-28.2782
-14.45
3.31841
23.4737
46.4679
78.3762
108.769
136.643
161.427
181.712
195.708
201.482
195.433
183.07
153.772
120.076
71.6139
-2.42364
-49.1817
-104.394
-131.206
-141.623
-131.652
-112.145
-88.2505
-62.956
-46.0669
-23.1313
-2.53556
13.8196
29.1194
42.7736
54.441
64.0382
71.5169
76.6806
79.1672
78.5711
74.5594
67.2483
57.3222
45.8637
34.531
24.617
16.6602
11.0636
7.28032
4.90116
3.56787
2.73006
3.0849
-0.0231832
-0.0227544
-0.0221327
-0.0213102
-0.0202804
-0.0190324
-0.0175545
-0.0158313
-0.0138278
-0.0116783
-0.00898501
-0.00601775
-0.0029251
-0.000127206
0.0022669
0.00464882
0.00707339
0.00949814
0.0117369
0.0138622
0.0158621
0.0176414
0.018964
0.0195418
0.020106
0.0200191
0.0191294
0.0174045
0.0146391
0.0106
0.00511858
-0.00329345
-0.0136326
-0.0259422
-0.0412241
-0.0600533
-0.082686
-0.109508
-0.140902
-0.17723
-0.218808
-0.265893
-0.318673
-0.377256
-0.441676
-0.511884
-0.587779
-0.669034
-0.75613
-0.844647
-0.942061
-1.04013
-1.14355
-1.25409
-1.36624
-1.47439
-1.57945
-1.69061
-1.81558
-1.94668
-2.07927
-2.21113
-2.34206
-2.46903
-2.59775
-2.72045
-2.84859
-2.96328
-3.08427
-3.18322
-3.2881
-3.36197
-3.43883
-3.47884
-3.50332
-3.49538
-3.45629
-3.40117
-3.25706
-3.20399
-2.95804
-2.97656
-2.64218
-2.4674
-2.62084
-1.80484
-1.45248
-0.691751
-2.87088
0.760809
-1.1286
0.731835
2.27137
1.00806
-14.8751
16.0939
-20.0209
-27.1607
3.67734
8.6427
-120.276
-50.9362
-147.096
-149.04
-175.074
-94.5647
-28.9723
-11.9257
19.6452
30.3869
44.5324
53.0563
39.8927
27.9116
18.5331
11.9488
3.48194
-8.68139
-24.2095
-35.3494
-45.9309
-48.4401
-48.2485
-45.6892
-41.9723
-37.7438
-32.9292
-27.264
-20.3253
-11.5494
-0.383961
14.3211
33.6936
49.1398
74.3303
96.4847
116.777
133.409
144.083
147.006
140.291
122.886
103.806
75.6216
9.74418
-50.9818
-81.6407
-113.029
-127.21
-123.708
-109.336
-88.0979
-65.465
-51.9529
-27.1585
-14.7456
0.128378
12.8387
24.6055
35.2686
44.7609
52.934
59.6822
64.8217
68.0959
69.1743
67.7498
63.5748
56.8746
48.3359
39.3232
30.3078
22.4482
16.1127
11.8085
8.92224
6.79122
5.62282
4.91567
5.11879
-0.022925
-0.0223922
-0.0216903
-0.0208223
-0.0197942
-0.0186095
-0.0172689
-0.0157617
-0.014048
-0.0120628
-0.00958215
-0.00721384
-0.00496178
-0.00295681
-0.000960253
0.000894233
0.00250096
0.00382023
0.00484366
0.00556606
0.00594662
0.00586386
0.00468716
0.00312754
0.00115327
-0.00139699
-0.00463515
-0.00867438
-0.0136706
-0.0198333
-0.0269781
-0.0399558
-0.0529898
-0.0647007
-0.0758552
-0.0954653
-0.116761
-0.14123
-0.169432
-0.201708
-0.238342
-0.279566
-0.325544
-0.376357
-0.431995
-0.492345
-0.557302
-0.626064
-0.702414
-0.716311
-0.909945
-0.941718
-0.975553
-1.1127
-1.28765
-1.2596
-1.17411
-1.21495
-1.44086
-1.59812
-1.72837
-1.85103
-1.96867
-2.06475
-2.16814
-2.26406
-2.37045
-2.46316
-2.56712
-2.64094
-2.72385
-2.77238
-2.81169
-2.848
-2.78993
-2.78445
-2.6601
-2.60938
-2.30626
-2.26192
-1.9219
-1.84264
-1.94497
-1.49438
-0.828926
-1.83104
0.524505
-2.67394
0.571305
2.92856
-2.87799
-12.1372
4.12598
20.4013
-46.735
-15.6958
30.776
-111.81
-92.4322
-126.925
-151.182
-216.382
-123.291
-46.7939
-31.9934
18.1622
36.59
70.6916
72.8732
56.193
38.1357
26.0102
17.5516
10.5854
5.83823
-2.25112
-12.7029
-25.2374
-35.638
-41.01
-42.9387
-41.7982
-39.1101
-35.358
-31.0319
-26.4292
-21.7029
-16.6263
-10.8567
-4.20098
3.25672
13.8876
28.2796
37.0939
53.6985
67.1393
77.9497
84.641
85.8887
80.4777
69.3572
54.8812
19.8357
-31.063
-57.9671
-82.1344
-95.1702
-98.4204
-91.5422
-76.2252
-59.2516
-39.0874
-26.0957
-15.5421
-5.0626
4.00934
13.3087
21.5615
29.2473
36.3082
42.7051
48.3236
53.0228
56.564
58.6686
59.0092
57.3181
53.4166
47.5469
40.1203
32.0374
25.1068
19.1476
14.3741
11.1266
8.96188
7.43709
6.68761
6.28144
6.14963
-0.0220171
-0.0215958
-0.0210263
-0.0203144
-0.0194689
-0.0184979
-0.0174096
-0.0162102
-0.0148986
-0.0134657
-0.0119031
-0.0103095
-0.00872511
-0.00705638
-0.00488739
-0.00313527
-0.00191998
-0.00116684
-0.000837251
-0.000915778
-0.00133098
-0.00228906
-0.00343333
-0.00498519
-0.00710439
-0.00987167
-0.0133306
-0.0175385
-0.0225756
-0.0285286
-0.0354644
-0.0448382
-0.0549768
-0.065902
-0.078579
-0.0933835
-0.110369
-0.129757
-0.151797
-0.176744
-0.204833
-0.23628
-0.271248
-0.309844
-0.352096
-0.397957
-0.447329
-0.500035
-0.556044
-0.612519
-0.674201
-0.742695
-0.81283
-0.88894
-0.964232
-1.02908
-1.09743
-1.15696
-1.22514
-1.29881
-1.34528
-1.4802
-1.64166
-1.57466
-1.66515
-1.73621
-1.82357
-1.91445
-2.00411
-2.08418
-2.13721
-2.18582
-2.18061
-2.2389
-2.10065
-2.10321
-1.8473
-2.05926
-1.40427
-1.29148
-1.11032
-0.973328
-0.988186
-0.472344
-1.65339
-2.63858
2.47736
-4.50454
-9.94727
13.6944
-9.18768
-37.1237
-5.26717
23.1959
-79.1082
-59.9547
-151.058
-143.906
-217.993
-149.508
-66.7415
-63.581
2.18099
29.7686
69.8763
107.867
81.7124
58.8187
43.9173
31.73
21.1941
13.134
7.48266
1.03742
-5.32175
-15.9284
-25.2061
-32.4322
-35.9685
-37.4925
-36.9206
-34.9469
-32.2827
-28.9231
-25.0411
-21.0003
-16.8348
-12.7774
-8.2669
-3.04191
3.40852
9.02824
15.7081
22.4542
27.3405
33.7568
36.1263
35.0178
30.3341
22.6236
9.68644
-12.8168
-34.3774
-52.4974
-62.2242
-65.3546
-60.1639
-53.1405
-40.8833
-30.0378
-20.954
-7.24273
1.0098
8.63028
14.7508
18.7176
22.6746
26.7501
30.893
34.936
38.7268
42.0992
44.8616
46.7505
47.5395
46.9841
44.9447
41.3696
36.6716
31.4806
25.8714
20.6969
16.1925
12.584
10.1006
8.50439
7.46036
6.98506
6.7616
6.60325
-0.0204471
-0.0202277
-0.0198824
-0.019414
-0.0188279
-0.0181302
-0.0173284
-0.0164317
-0.015449
-0.0143909
-0.0132759
-0.012144
-0.0110282
-0.00993243
-0.00878083
-0.00773083
-0.00691451
-0.00640203
-0.00623309
-0.00645008
-0.00705351
-0.00811179
-0.00812996
-0.00884621
-0.010376
-0.0126568
-0.0156743
-0.0194428
-0.0240063
-0.029405
-0.0357334
-0.0432638
-0.0519586
-0.0618173
-0.0730778
-0.0859067
-0.100486
-0.116974
-0.135549
-0.156378
-0.179596
-0.205354
-0.233706
-0.264723
-0.298352
-0.334556
-0.373079
-0.413806
-0.456221
-0.502019
-0.535291
-0.612868
-0.689004
-0.763383
-0.837274
-0.903606
-0.99291
-1.02653
-1.05445
-1.09349
-1.12825
-1.19372
-1.24187
-1.2794
-1.33601
-1.37525
-1.50583
-1.45868
-1.70671
-1.67308
-1.74563
-1.80239
-1.74554
-1.8055
-1.65215
-1.66412
-0.674533
-1.60037
-1.52098
-0.696853
-1.15917
-1.79723
-1.99805
-0.436219
-2.34796
-9.00691
5.47085
-9.35257
-36.3798
44.3499
-53.4021
-35.2308
-77.6162
-72.8111
-135.559
-231.157
-196.618
-88.0669
-86.0406
-33.1924
19.157
55.2134
114.625
99.3014
79.0954
67.3935
50.4667
36.0862
26.9245
20.07
13.1913
6.73901
0.411268
-7.41656
-15.4039
-23.2982
-30.0936
-34.2097
-36.0831
-36.5935
-35.565
-33.2024
-29.615
-26.0874
-22.5604
-18.9377
-15.258
-11.2829
-7.95742
-4.75191
-1.58724
0.189309
2.04208
3.29117
3.77458
4.78414
1.33529
-2.89688
-7.816
-14.0481
-25.9694
-32.4793
-38.2607
-40.745
-39.0223
-36.1995
-29.1357
-17.7119
-5.11239
5.77643
16.7919
21.3462
23.6194
24.3887
24.8023
25.3867
26.2748
27.7179
29.5421
31.5386
33.5317
35.3436
36.7659
37.5394
37.5185
36.5349
34.5377
31.5149
27.844
23.7956
19.7345
16.2637
13.169
10.6538
8.78319
7.66995
6.95646
6.75748
6.68312
6.51841
-0.0182813
-0.0182745
-0.018173
-0.0179691
-0.0176604
-0.0172481
-0.016739
-0.016141
-0.0154633
-0.0147157
-0.0139108
-0.0130713
-0.0122187
-0.0113765
-0.0105473
-0.00978884
-0.00915624
-0.00871681
-0.00850452
-0.00859214
-0.00899181
-0.00982373
-0.0107991
-0.0120443
-0.0137064
-0.0158693
-0.0186297
-0.0220163
-0.026164
-0.0310543
-0.0368801
-0.0436448
-0.0516109
-0.0607205
-0.0712942
-0.0833009
-0.0970918
-0.11267
-0.130327
-0.150185
-0.172347
-0.197095
-0.224352
-0.254369
-0.286993
-0.322559
-0.36032
-0.401273
-0.443592
-0.489643
-0.533062
-0.584524
-0.639561
-0.697998
-0.760676
-0.818518
-0.890731
-0.951287
-1.00603
-1.05641
-1.10026
-1.16287
-1.19288
-1.20939
-1.27524
-1.30451
-1.3306
-1.3974
-1.43604
-1.52929
-1.68279
-1.7863
-1.21187
-1.49224
-1.42219
-2.08547
-0.072966
-2.87702
-2.1852
-1.64498
-0.950999
-3.6001
-4.49611
-0.995081
-4.72501
-12.0849
-15.7379
-12.4106
-72.4298
-22.3776
-68.0487
-172.08
-172.734
-240.941
-143.496
-66.5181
-61.1328
9.36969
42.6133
95.7667
97.3805
83.5423
80.5092
64.8898
52.0332
43.7133
34.4398
25.6304
19.226
13.6184
7.54397
1.2136
-5.63871
-13.0871
-19.102
-25.7066
-30.3717
-33.5494
-35.5398
-36.3401
-35.8292
-34.1427
-31.0483
-27.7557
-24.1388
-20.3587
-16.6299
-13.0128
-10.7541
-9.26949
-8.88461
-9.41494
-10.3701
-11.9144
-13.9221
-16.0549
-19.2514
-23.1986
-26.7552
-30.0358
-32.1506
-30.0575
-27.4045
-22.2114
-14.1118
-2.1598
11.7186
21.644
29.521
35.6115
35.9131
35.3541
33.7833
31.1645
28.9605
27.4634
26.5162
26.262
26.5195
27.0923
27.816
28.5193
28.9956
29.0149
28.5188
27.3958
25.6495
23.2591
20.5969
17.7967
14.9849
12.7613
10.6536
8.92774
7.41555
6.69559
6.16964
6.21634
6.17238
5.80334
-0.0158057
-0.0159919
-0.0161459
-0.0162107
-0.016163
-0.0159971
-0.015735
-0.0153908
-0.0149767
-0.0144985
-0.013951
-0.0133571
-0.0126993
-0.0120412
-0.0113324
-0.0106824
-0.0100396
-0.00954782
-0.0090973
-0.00894496
-0.00893095
-0.0092523
-0.00983257
-0.0107655
-0.0121414
-0.0139216
-0.0163528
-0.0192115
-0.023055
-0.0272307
-0.0327316
-0.0385774
-0.0461461
-0.0541511
-0.0642754
-0.0749998
-0.0882118
-0.1024
-0.119162
-0.137691
-0.158526
-0.181984
-0.207845
-0.236368
-0.267629
-0.302487
-0.33801
-0.380295
-0.420889
-0.467997
-0.513216
-0.565601
-0.617262
-0.673806
-0.732842
-0.787153
-0.857636
-0.908747
-0.984894
-1.02611
-1.10191
-1.13216
-1.22109
-1.21946
-1.37138
-1.35422
-1.42253
-1.51185
-1.43827
-2.06834
-0.663532
-2.97837
-2.54775
-1.4923
-3.05893
-2.55574
-2.68839
-3.36135
-3.10682
-5.19078
-4.00503
-8.63838
-10.009
-17.0624
-22.9929
10.9054
-101.264
-61.9053
-127.323
-153.025
-217.229
-161.035
-79.0846
-83.7984
-9.36573
19.874
79.0703
88.8619
74.7363
73.8402
68.027
59.6448
54.492
45.5341
37.5308
31.5474
25.3793
19.3082
14.1809
9.18954
3.66064
-2.5657
-9.38112
-13.776
-19.6351
-24.2451
-28.0439
-31.2867
-33.9669
-35.7528
-36.3755
-35.9821
-34.0444
-31.2765
-27.7659
-24.0125
-20.4666
-17.5274
-15.9178
-15.3625
-16.0049
-17.3461
-19.1626
-21.3484
-23.6794
-25.8157
-27.7873
-29.3183
-29.7586
-28.365
-22.7419
-17.6509
-6.31589
4.68143
16.6786
28.6153
35.7439
42.9132
46.7445
48.5404
45.9802
42.1866
37.679
33.075
29.2627
26.4492
24.4274
23.1279
22.3804
22.0158
21.8975
21.8702
21.7495
21.3425
20.666
19.6363
18.2804
16.5449
14.785
12.9573
11.0925
9.81761
8.38647
7.28942
5.97698
5.58135
5.09681
5.28952
5.12744
4.23543
-0.0135909
-0.013922
-0.0144392
-0.0148024
-0.0149483
-0.0148524
-0.0146571
-0.0143995
-0.0141054
-0.0137845
-0.0133402
-0.0129167
-0.0122472
-0.0117606
-0.010908
-0.0103591
-0.00947362
-0.00907697
-0.00793964
-0.00793645
-0.00735738
-0.00743153
-0.00729015
-0.00784578
-0.00912921
-0.0103874
-0.0130292
-0.0151342
-0.0196912
-0.022075
-0.029019
-0.0326744
-0.0423627
-0.0478651
-0.0606547
-0.0686256
-0.0847351
-0.0963888
-0.115266
-0.132493
-0.153746
-0.176815
-0.202953
-0.229526
-0.26187
-0.296094
-0.326501
-0.377187
-0.407472
-0.464691
-0.495011
-0.567396
-0.603168
-0.684571
-0.713863
-0.800997
-0.832575
-0.908196
-0.957821
-1.03307
-1.07371
-1.156
-1.40087
-0.772954
-1.78439
-1.11046
-2.0239
-1.90114
-2.06635
-1.82396
-3.11629
-2.40746
-4.13262
-2.97825
-6.22756
-4.65292
-9.61493
-7.75103
-12.9153
-14.7815
-14.0521
-19.2211
-35.7216
-36.6379
-62.3383
-139.941
-122.426
-187.754
-152.576
-76.4577
-93.9273
-27.5228
4.43655
55.8638
94.1131
67.3811
70.9421
63.6941
52.3798
50.5224
48.7712
43.7329
38.6904
33.1733
28.4075
24.4217
20.1033
15.475
10.9084
6.23693
1.38207
-4.48207
-9.37379
-12.0463
-16.621
-20.0522
-23.589
-27.2502
-30.8796
-33.937
-36.0283
-37.127
-36.5341
-34.7547
-32.0246
-28.8871
-25.8784
-23.4506
-21.9655
-21.4582
-21.9055
-22.8754
-24.3052
-25.874
-27.183
-27.9937
-27.9887
-26.8666
-24.083
-18.4904
-8.52296
-2.32462
11.4057
23.7319
34.748
43.776
50.6479
55.2199
56.0406
54.2114
49.2992
43.5173
37.4308
31.7823
27.0991
23.506
20.8293
18.8895
17.5181
16.5661
15.9272
15.4647
15.0296
14.4599
13.8278
13.0509
12.1642
11.035
10.0364
8.97231
7.7505
7.16736
6.1569
5.51637
4.27671
4.13646
3.49972
3.67377
3.16514
1.41437
-0.0125756
-0.0127363
-0.0139309
-0.0143068
-0.0143201
-0.0136884
-0.0132655
-0.0128375
-0.012472
-0.0122069
-0.0114546
-0.0112648
-0.00981882
-0.00988364
-0.00792597
-0.00768757
-0.00582604
-0.00657024
-0.00176429
-0.00463396
-0.00198844
-0.00293915
-0.000713749
-0.000659447
-0.00187734
0.000728039
-0.00497877
0.00109396
-0.0101089
-0.00175248
-0.0195174
-0.0085637
-0.0323005
-0.0203126
-0.0488767
-0.0382799
-0.069413
-0.0646992
-0.0925787
-0.101637
-0.119488
-0.145306
-0.158247
-0.189009
-0.208861
-0.247445
-0.247575
-0.310617
-0.317614
-0.419025
-0.336917
-0.519499
-0.43961
-0.627342
-0.516419
-0.710657
-0.619671
-0.773568
-0.80428
-0.807327
-1.07297
-0.877358
-1.32715
-1.15066
-1.54155
-1.69861
-1.96341
-2.30524
-3.13106
-3.00831
-5.16019
-4.91024
-7.82717
-9.31776
-11.3177
-15.1128
-22.0216
-30.9584
-27.7966
-26.3155
-36.2395
-41.3407
-92.8903
-81.3307
-175.957
-134.002
-86.4098
-100.35
-31.268
0.530181
49.0669
79.628
67.0098
68.4402
56.7174
42.8513
45.0557
42.2415
37.2866
36.2367
35.5288
32.456
28.8196
25.422
22.4103
19.5093
16.1344
12.207
8.23574
4.20444
0.265783
-3.50165
-6.4263
-7.84784
-10.831
-13.4043
-16.625
-20.4668
-24.7597
-29.0798
-32.7477
-35.4396
-36.8159
-36.7059
-35.5234
-33.6235
-31.4689
-29.463
-27.8711
-26.8209
-26.3111
-26.3669
-26.6715
-26.9652
-26.8411
-25.9229
-23.9283
-20.5077
-14.8216
-6.7616
2.57734
10.7096
24.369
35.9224
45.3811
52.845
58.1487
59.7433
58.2599
54.1187
47.8615
41.1057
34.3952
28.3448
23.3038
19.3436
16.2964
13.9629
12.2176
10.9217
9.98591
9.29882
8.74836
8.19611
7.74623
7.2991
6.86408
6.27271
5.87062
5.3153
4.46811
4.26313
3.48917
3.08503
1.86654
1.80225
0.803232
0.713722
-0.351462
-2.72368
-0.0104488
-0.00538466
-0.00844582
-0.00681589
-0.00708455
-0.00323801
-0.00316973
-0.00127253
-0.00138422
-0.000687232
0.00100379
0.000499826
0.00492298
0.00316684
0.0079648
0.0103303
0.0118804
0.00919024
0.0315139
0.00869281
0.0262886
0.0184133
0.0348396
0.0354687
0.0354576
0.0519727
0.0326274
0.0732864
0.0279664
0.0967187
0.0234339
0.118653
0.022656
0.135318
0.0296655
0.143667
0.0487812
0.140696
0.0851909
0.12338
0.142562
0.0916663
0.220323
0.0463096
0.319866
-0.01643
0.435343
-0.0769074
0.519797
-0.0962275
0.614827
-0.025138
0.628313
0.097312
0.549348
0.264876
0.307052
0.467912
-0.176107
0.676093
-0.941859
0.72951
-1.93298
0.262781
-3.05322
-0.888068
-4.29826
-2.98704
-5.91035
-6.59321
-8.00591
-13.0681
-9.71844
-22.6377
-12.7938
-33.0829
-18.3852
-16.0565
-19.0337
-40.896
-63.9531
-138.736
-101.316
-105.128
-109.808
-13.7744
14.2308
62.5839
75.4104
69.8935
51.1379
41.8504
42.0029
43.3554
33.7875
27.3732
28.9313
28.2859
26.3392
26.1248
25.8159
23.7074
21.2291
19.0617
16.8724
14.5335
11.6713
8.34321
5.38846
2.65212
0.448312
-0.975157
-1.96599
-2.84721
-3.45465
-5.07306
-7.2091
-10.2355
-14.0544
-18.5121
-23.0027
-27.0669
-30.4346
-32.5414
-33.8803
-34.3373
-34.0282
-33.1866
-31.966
-30.4724
-28.6952
-27.4707
-26.3067
-25.0764
-23.6162
-21.2765
-17.8228
-12.9965
-5.092
3.49841
8.73025
21.8113
31.9797
41.7007
49.3559
54.9722
57.9052
57.4611
54.4294
49.1215
42.4426
35.5825
29.0037
23.1274
18.2018
14.2435
11.0957
8.60969
6.69381
5.21581
4.12158
3.32537
2.74844
2.27126
2.00263
1.81533
1.67436
1.4476
1.3347
0.94068
0.126312
-0.152375
-0.754943
-1.03393
-2.09223
-2.47082
-3.57782
-3.97851
-5.00248
-6.60667
-0.0899464
0.0113236
0.022908
0.0413564
0.0275441
0.051035
0.0354213
0.0514551
0.0350784
0.0439778
0.038116
0.0370195
0.0479702
0.0312779
0.0630388
0.0282365
0.0783646
0.0266128
0.0972218
0.0334976
0.114499
0.0506953
0.133354
0.0824239
0.152286
0.130616
0.173233
0.197264
0.198748
0.281444
0.232414
0.37997
0.279362
0.488056
0.345219
0.600644
0.43493
0.713367
0.553231
0.824643
0.703819
0.928171
0.886305
1.01688
1.09339
1.09188
1.29948
1.15956
1.48499
1.20113
1.56421
1.14216
1.5419
1.02523
1.41167
0.866893
1.15641
0.659625
0.758234
0.411563
0.240021
0.145401
-0.319437
-0.05211
-0.806665
-0.3686
-1.27959
-0.810258
-1.67255
-1.30363
-1.93516
-1.42717
-2.01617
-0.442776
0.359349
2.90329
26.8265
-4.37701
-25.2699
-61.2997
-131.016
-151.027
-25.7482
21.0726
81.2682
144.994
67.0261
26.3037
34.5497
38.2655
22.6479
19.1471
23.8081
22.1398
16.7821
15.1021
16.2547
16.5235
15.8519
15.8393
15.4265
13.737
11.9766
10.3126
8.50525
6.68904
4.78065
3.04767
1.76317
0.824709
0.252188
0.0257712
-0.0239675
-0.0235572
-0.200392
-0.307287
-1.05234
-2.77281
-5.26857
-8.43582
-12.0264
-15.6506
-19.0624
-21.7361
-23.2383
-24.1552
-24.5462
-24.6059
-24.3602
-23.8234
-22.9936
-20.9135
-18.474
-15.5357
-12.2058
-9.83857
-5.99382
-0.478388
6.32684
9.89894
18.2672
26.9607
34.0291
40.3152
44.9455
47.6486
47.9287
45.8586
41.9676
36.7182
30.8205
25.032
19.7827
15.1372
11.2068
7.95993
5.28647
3.08227
1.26372
-0.245666
-1.46328
-2.44081
-3.22522
-3.89208
-4.36685
-4.75757
-5.09649
-5.44738
-5.79293
-6.4027
-7.33817
-7.6812
-7.26617
-6.2448
-6.60473
-6.41787
-6.14237
-5.48093
-4.59179
-1.95604
-0.179506
-0.184273
-0.197552
-0.209749
-0.222826
-0.231892
-0.243752
-0.253887
-0.26674
-0.278187
-0.290411
-0.302599
-0.313592
-0.327083
-0.336991
-0.352226
-0.361169
-0.379074
-0.388226
-0.409941
-0.420434
-0.446066
-0.459794
-0.489992
-0.509528
-0.544759
-0.573088
-0.613793
-0.654484
-0.701232
-0.757869
-0.811404
-0.887203
-0.948663
-1.046
-1.11713
-1.23708
-1.32038
-1.46218
-1.56077
-1.72148
-1.83862
-2.01281
-2.15107
-2.33071
-2.49018
-2.66614
-2.84037
-3.00248
-3.17885
-3.31041
-3.47545
-3.55976
-3.68735
-3.70282
-3.76443
-3.68445
-3.65261
-3.43264
-3.28428
-2.84547
-2.56303
-1.78662
-1.34047
-0.101323
0.646886
2.32689
3.91818
5.59166
9.38643
10.058
18.1685
17.8735
30.0248
37.6708
40.4401
92.6311
82.9612
18.9625
-19.3694
-24.236
-19.7804
-1.48789
-1.97902
14.3287
15.1745
4.12297
0.744641
4.15841
3.65421
1.56734
2.26927
3.13079
2.58481
1.89332
1.92115
2.21429
2.3265
2.16484
2.08861
1.90124
1.48709
1.10436
0.76082
0.444509
0.192904
-0.00495898
-0.127447
-0.172005
-0.167655
-0.138387
-0.096559
-0.0602097
-0.0416162
0.0885291
0.265357
0.354013
0.208168
-0.665106
-3.89685
-7.72978
-12.6963
-17.6858
-21.6119
-23.8725
-24.406
-23.3624
-20.9958
-17.5587
-13.279
-8.29536
-3.10319
2.64481
9.1736
11.8197
17.8288
22.3934
26.7058
30.2993
32.8323
35.1549
35.9597
35.4836
33.7472
30.8723
27.1095
22.7557
18.2525
13.983
10.1945
7.12052
3.01156
2.70987
2.39476
2.03358
1.62112
1.13843
0.565608
-0.108996
-0.888927
-1.75968
-2.7066
-3.70391
-4.71363
-5.65473
-6.46806
-7.08792
-7.47354
-7.57743
-7.40462
-6.90268
-5.9868
-4.8617
-3.99464
-2.79636
-1.43461
-0.515777
0.507419
0.915976
0.677684
-3.8697
-3.1301
-1.31671
-0.79199
-0.647608
-0.500482
-0.392533
-0.306905
-0.371342
-0.379394
-0.481732
-0.612674
-1.08526
-1.53481
-2.1926
-2.70161
-3.23792
-3.60673
-3.77013
-3.80956
-3.75672
-3.6009
-3.17226
-2.86646
-2.61963
-4.08532
-1.31894
-0.539263
1.46341
3.41982
4.48873
5.05971
4.75482
3.37667
1.45075
0.24235
-0.294312
-1.88841
-3.10956
-5.30154
-5.60297
-5.66675
-5.27809
-4.4393
-3.85563
-2.93917
-2.46775
-1.73636
-1.53424
-0.919771
-5.0369
-0.60113
0.752613
2.78857
7.53992
9.53955
10.4205
9.92253
7.80808
4.4523
1.04948
-1.03369
-2.1035
-4.92607
-9.21512
-9.03886
-8.4292
-7.21635
-5.23023
-3.38082
-1.43837
-0.19221
1.18913
1.77824
2.48521
-6.02978
-1.26006
0.11692
2.13516
6.9906
10.0028
11.2804
11.0579
9.05309
5.42259
1.26805
-1.64464
-2.79684
-5.95456
-11.5425
-11.332
-10.4623
-8.6683
-5.99766
-3.39656
-0.837335
0.935353
2.49514
3.56316
4.29678
-5.64095
-1.81737
-0.593213
1.35608
6.25027
9.39533
10.7349
10.5619
8.63167
5.01588
0.755525
-2.28596
-3.58634
-7.43524
-12.9995
-12.8259
-11.8311
-9.61289
-6.48544
-3.38395
-0.513883
1.54105
3.08489
4.28012
5.25736
-5.17823
-2.12684
-1.03545
0.979045
5.93928
8.63469
9.8351
9.55347
7.54769
3.96101
-0.174179
-2.98338
-4.5119
-9.59571
-13.8265
-13.944
-12.8336
-10.2227
-6.70964
-3.22888
-0.182447
1.90746
3.10386
5.24905
5.58571
-4.45248
-2.24059
-1.14331
1.22312
5.94031
7.96158
8.94937
8.44511
6.26118
2.65692
-1.28262
-3.65046
-5.60769
-11.995
-14.4377
-14.9093
-13.6229
-10.6009
-6.69904
-2.90066
0.212104
2.07663
3.13442
5.91169
5.91238
-3.81907
-2.39902
-0.857755
2.71578
5.52588
7.51685
8.28033
7.45211
4.98388
1.32472
-2.49295
-4.05171
-7.06879
-13.7955
-15.4723
-15.8066
-14.2719
-10.7772
-6.45158
-2.61779
0.519652
2.20855
3.49119
6.4846
6.20449
-3.95421
-2.13916
0.538958
3.13591
5.67754
7.47549
7.92725
6.69107
3.85723
0.0697956
-3.30074
-4.84033
-8.74873
-15.3815
-16.4685
-16.6454
-14.8228
-10.7009
-6.39062
-2.47717
0.695191
2.48928
4.21069
6.51855
6.54937
-3.87598
-1.49862
1.0186
3.76093
6.23242
7.82095
7.93258
6.24238
2.96957
-0.985643
-3.90532
-5.61427
-10.8783
-16.5168
-17.4277
-17.4388
-15.2883
-10.8641
-6.63204
-2.3246
0.910177
2.74714
4.83385
6.47321
6.82652
-4.57054
-1.41104
1.49625
4.51546
7.05804
8.51567
8.3149
6.15925
2.39359
-1.77732
-4.31828
-6.31366
-13.391
-17.0941
-18.4019
-18.1955
-15.7495
-11.3794
-6.79845
-2.12448
1.19695
3.00192
5.41371
6.75094
6.84466
-7.10934
-1.8305
1.77828
5.26172
8.04945
9.50274
9.06486
6.46944
2.18474
-2.24419
-4.58551
-6.966
-14.946
-18.2206
-19.4169
-18.9353
-16.2999
-11.7755
-6.86736
-1.85242
1.51057
3.36928
6.05793
7.15643
6.78872
-9.2195
-4.56953
1.98477
5.89976
9.11152
10.7143
10.145
7.16828
2.36982
-2.44208
-4.62779
-7.47853
-16.1426
-19.3631
-20.4555
-19.7011
-16.9273
-12.1277
-6.85183
-1.49666
1.9717
3.63441
6.89851
7.66462
6.7178
-10.632
-7.76069
0.590471
6.27787
10.1323
12.0576
11.4918
8.22207
2.93238
-2.31827
-4.59827
-7.75923
-17.0842
-20.4688
-21.5311
-20.5424
-17.5929
-12.4452
-6.74763
-1.06516
2.50853
4.02427
7.85468
8.28682
6.65524
-12.4106
-9.97929
-3.6524
6.86609
11.0163
13.418
13.0094
9.55989
3.82174
-1.92465
-4.48712
-7.80912
-17.8161
-21.5562
-22.6668
-21.4926
-18.279
-12.7156
-6.55764
-0.551481
2.94717
4.73296
8.98696
9.04007
6.61086
-15.0391
-11.6653
-7.16975
5.27156
11.5478
14.659
14.5747
11.0726
4.95676
-1.32737
-4.31139
-7.67992
-18.4007
-22.6558
-23.8847
-22.5652
-18.9972
-12.9567
-6.30596
0.0317956
3.36128
5.63772
10.305
9.96249
6.55967
-17.599
-13.1794
-9.84614
1.59099
11.6777
15.6348
16.0424
12.6253
6.20976
-0.605755
-4.09795
-7.45007
-18.925
-23.8023
-25.1996
-23.758
-19.7697
-13.2073
-6.02007
0.5935
3.65717
6.91884
11.7507
10.834
6.65008
-20.4276
-15.0988
-11.9279
-4.09653
12.061
16.281
17.2634
14.0636
7.42528
0.148923
-3.89099
-7.22249
-19.4804
-25.0276
-26.6124
-25.0537
-20.6098
-13.5214
-5.74064
1.15673
3.98149
8.32944
13.2344
11.6891
6.84669
-23.1647
-18.1226
-13.4945
-7.6377
9.44322
16.2532
18.075
15.2223
8.44689
0.646465
-3.533
-7.12919
-20.1409
-26.3433
-28.0985
-26.414
-21.5127
-13.8494
-5.50872
1.35021
4.59353
9.94654
14.6582
12.5523
7.10215
-25.6263
-20.7146
-14.9558
-10.5205
5.42806
15.447
18.3306
15.9443
9.13327
0.98633
-3.42131
-7.19925
-20.9895
-27.7281
-29.5986
-27.771
-22.4371
-14.1274
-5.37178
1.27642
5.27741
11.7545
15.8734
13.4057
7.3741
-27.7642
-23.355
-16.6536
-12.7059
-1.26296
15.5525
18.038
16.1051
9.34608
1.10158
-3.6712
-7.47541
-22.0521
-29.1152
-31.0126
-29.0229
-23.2983
-14.4457
-5.37255
0.912664
5.86725
13.6759
16.7909
14.2062
7.6292
-29.4561
-25.6984
-18.5269
-14.5988
-6.17486
13.0489
17.0461
15.6141
8.96773
0.61632
-3.86601
-8.11529
-23.262
-30.3889
-32.2022
-30.035
-23.9763
-14.7378
-5.4584
0.217538
6.23664
16.0483
16.8872
14.8994
7.89914
-30.6344
-27.5746
-21.6948
-15.2679
-9.87482
8.73556
15.1571
14.4118
7.94992
-0.320735
-4.2334
-9.07169
-24.5327
-31.3968
-33.006
-30.6496
-24.334
-14.8732
-5.68212
-0.657047
6.97028
17.3729
16.8476
15.4269
8.19062
-31.2757
-28.9366
-23.3769
-16.7499
-12.3059
3.52385
12.575
12.5237
6.31257
-1.7851
-4.70713
-10.1755
-25.7065
-31.9676
-33.2664
-30.7195
-24.2979
-14.683
-5.49401
-1.92243
7.8111
17.2288
16.9531
15.7006
8.37096
-31.3811
-29.7717
-25.1167
-18.1238
-14.1191
-3.78414
11.2211
10.1684
4.14965
-3.15433
-5.82393
-11.3412
-26.6041
-31.948
-32.8856
-30.2313
-23.7324
-14.0104
-5.73495
-2.46773
7.76259
16.7454
16.6438
15.6133
8.39484
-30.9883
-30.0752
-26.3199
-20.536
-14.8724
-8.58984
7.33481
7.36938
1.63644
-4.59414
-7.06386
-12.5494
-27.0384
-31.2683
-31.8989
-29.1391
-22.2008
-12.5789
-5.93001
-2.77973
7.40428
15.8126
15.8642
15.1732
8.236
-30.2376
-29.8977
-26.944
-21.879
-15.8616
-11.5062
2.39904
4.13131
-1.05289
-5.96643
-8.27953
-13.7514
-26.8566
-29.9744
-30.3392
-26.8464
-19.6368
-11.0448
-5.79358
-2.85261
6.7844
14.3007
14.5426
14.2848
7.84816
-28.9564
-29.2872
-27.2862
-23.0298
-17.0519
-13.5081
-2.93088
0.364638
-3.91007
-7.45993
-9.47018
-15.1578
-25.8609
-28.0081
-27.44
-23.4298
-16.028
-8.38102
-5.65782
-2.35482
5.70826
12.142
12.5774
12.8116
7.15022
-27.2511
-28.0046
-26.8399
-23.7829
-19.0219
-14.0506
-9.088
-2.625
-6.80628
-8.34041
-10.8605
-17.1695
-23.2721
-24.8325
-23.2957
-18.0387
-10.9491
-6.05102
-3.80781
-1.43413
4.33642
9.38216
9.92772
10.5891
6.02731
-25.3719
-26.3529
-25.7532
-23.5779
-20.0661
-15.042
-11.7646
-6.73525
-8.8188
-9.75773
-11.8345
-17.4035
-20.8094
-20.9876
-17.7329
-11.7599
-5.80442
-3.45611
-0.972032
-0.0423631
3.00228
6.46872
6.98934
7.85817
4.62006
-23.4836
-24.4975
-24.2443
-22.7449
-20.1608
-16.6471
-12.283
-10.324
-10.306
-10.926
-12.4813
-16.4998
-17.8494
-16.1314
-11.5289
-5.60349
-2.00777
1.87009
1.51782
1.09637
1.96596
3.62454
3.97724
4.71246
3.08314
-21.7155
-22.6111
-22.5199
-21.4931
-19.6684
-16.8389
-13.7085
-11.8816
-11.3377
-11.4065
-12.6633
-14.6584
-14.2797
-10.8718
-5.45774
-1.62305
4.76271
5.89001
4.17879
2.2279
0.987423
0.996824
1.03567
1.44007
1.46323
-20.151
-20.8304
-20.7606
-20.0273
-18.7048
-16.5208
-14.1891
-12.6942
-11.8576
-11.4706
-11.9256
-12.1957
-10.1906
-5.45184
-1.89452
4.35631
10.3042
9.56637
6.51467
3.01903
0.112903
-1.29559
-1.80769
-1.36544
-0.317701
-18.8299
-19.2421
-19.1044
-18.5148
-17.4971
-15.8462
-14.0755
-12.749
-11.7673
-11.0489
-10.5797
-9.33943
-5.64169
-2.57181
2.83185
11.1887
13.4909
12.2181
8.03845
3.24911
-0.826978
-3.14073
-4.46367
-3.65702
-2.02802
-17.7542
-17.8866
-17.6338
-17.0801
-16.234
-14.968
-13.5796
-12.363
-11.2518
-10.1736
-8.80327
-6.32923
-3.15256
1.09693
9.23641
14.2988
15.7061
13.4937
8.3592
2.71309
-2.17891
-4.2383
-7.30317
-5.73561
-3.02925
-16.8901
-16.7522
-16.3685
-15.7949
-15.0388
-14.0233
-12.8702
-11.6938
-10.4352
-8.95082
-6.86692
-3.90187
-1.08295
6.38564
12.4946
16.1351
16.2184
12.9926
7.17661
1.04773
-3.22967
-5.70575
-9.59466
-7.14675
-3.75297
-16.171
-15.8025
-15.2909
-14.677
-13.965
-13.0994
-12.0667
-10.8456
-9.39195
-7.44605
-4.84791
-2.86374
1.9635
10.2856
14.3363
16.2814
14.6608
9.8395
4.099
-1.11377
-4.15758
-7.71732
-10.9839
-7.95893
-4.01482
-15.617
-15.1168
-14.524
-13.8719
-13.164
-12.3435
-11.3153
-9.9574
-8.13788
-5.72134
-4.1273
-0.998902
6.08034
11.4596
14.5997
14.2256
10.2131
5.52992
0.129434
-4.03322
-5.66403
-10.3257
-11.4167
-8.01583
-3.94215
-14.9318
-14.3198
-13.6693
-13.0091
-12.3227
-11.5201
-10.4276
-8.89168
-6.84831
-4.95878
-2.81517
1.80683
8.0096
11.8373
12.9148
9.73546
4.6421
-0.807324
-5.47245
-6.84737
-8.51504
-12.1652
-11.6105
-7.2609
-3.75062
-13.9865
-13.3308
-12.6788
-12.0405
-11.4003
-10.5918
-9.36301
-7.54374
-5.54941
-4.06864
-0.969259
4.57916
8.58408
10.7212
8.78433
3.88345
-3.22926
-8.58978
-10.8973
-10.9487
-12.0582
-13.0041
-11.1779
-6.95465
-2.86432
-12.6168
-12.0301
-11.3924
-10.821
-10.2452
-9.3358
-7.93172
-6.03541
-4.7307
-2.07385
1.80926
5.67629
8.24535
7.81411
3.34137
-5.36182
-10.2384
-17.0878
-16.6698
-14.9304
-14.7855
-13.4795
-10.7337
-7.0265
-1.47883
-10.5738
-10.2166
-9.60057
-9.04072
-8.57879
-7.58158
-6.15371
-4.85136
-2.35367
0.426739
3.66249
6.24833
6.46726
2.70411
-5.27772
-12.1202
-21.3176
-24.0988
-21.2199
-18.193
-16.6082
-13.3244
-10.8381
-6.93772
0.396034
-7.72734
-7.78807
-7.20767
-6.72024
-6.03705
-5.50818
-4.26283
-2.20044
0.0398916
2.72631
5.05446
5.69462
2.81957
-4.48759
-12.2278
-18.9136
-31.3265
-28.4271
-24.1567
-20.2636
-17.4636
-13.8585
-10.4524
-6.26139
1.52213
-4.26777
-4.49578
-4.30444
-3.99608
-3.56924
-2.99714
-1.69642
0.208966
2.50435
4.64389
5.58333
3.64161
-2.58221
-10.9817
-16.046
-30.2168
-33.8028
-30.0437
-25.6379
-21.2598
-17.8593
-14.5804
-9.8995
-5.37611
2.29609
-0.881503
-1.51437
-1.24415
-1.12422
-1.05676
-0.62016
0.795943
2.69328
4.62873
5.90693
4.93728
0.0642018
-8.27738
-14.1209
-21.0734
-35.7687
-34.5061
-30.081
-25.9535
-21.3753
-18.0071
-15.0848
-9.17806
-4.56821
2.78223
1.93988
1.15196
1.196
1.18049
1.19963
1.81589
3.12398
4.70953
6.1448
6.24967
3.00928
-4.33314
-12.1704
-15.8845
-27.2703
-35.2832
-33.0403
-29.1754
-25.4751
-21.0122
-17.835
-15.1607
-8.42924
-3.87291
3.09093
3.77051
3.37459
3.58167
3.40892
3.30093
3.77744
4.85711
6.07179
6.80843
5.53196
0.202808
-8.1966
-13.793
-17.1866
-30.0521
-32.4705
-30.8715
-27.726
-24.5721
-20.3482
-17.3912
-14.6433
-7.7571
-3.28802
3.25068
5.46926
5.40808
5.39145
4.90608
4.69422
5.1053
5.89151
6.60608
6.47955
3.90627
-2.51597
-10.4147
-14.2928
-17.3956
-28.5878
-29.3943
-28.474
-25.9697
-23.4078
-19.4694
-16.7043
-13.6172
-7.17069
-2.77238
3.31596
6.40527
6.33796
6.27934
5.70796
5.40622
5.64815
6.08886
6.23235
5.25931
1.94722
-4.13507
-10.5289
-13.8164
-16.2629
-24.7932
-26.2719
-25.9049
-24.0267
-22.0112
-18.3554
-15.5636
-12.3495
-6.58083
-2.32344
3.32617
6.57146
6.54798
6.38101
5.73176
5.27521
5.29536
5.41058
5.07467
3.6365
0.52369
-4.15085
-8.90267
-12.3348
-14.1434
-19.3081
-23.8359
-23.248
-21.8926
-20.3358
-17.0241
-14.3606
-10.8121
-5.91829
-1.93959
3.27589
5.93791
5.87229
5.57548
4.81986
4.18746
4.05073
4.04224
3.61451
2.43645
0.388492
-2.60803
-6.14643
-9.64437
-11.6595
-14.712
-20.4125
-20.4079
-19.4715
-18.2892
-15.3891
-12.9432
-9.11734
-5.15039
-1.56584
3.12001
4.41947
3.94587
3.62896
2.91919
2.22858
2.22719
2.57539
2.69392
2.46521
1.78707
0.103579
-2.73544
-6.1452
-8.53483
-10.636
-16.3193
-17.0963
-16.5608
-15.7993
-13.3518
-11.2193
-7.44801
-4.23329
-1.07687
2.77679
1.52016
0.716868
0.394006
0.24018
-0.0349542
0.681736
1.99302
3.15516
4.06522
4.45006
3.50047
0.998063
-2.32061
-4.78234
-6.39913
-11.6982
-13.0662
-12.9667
-12.6312
-10.8134
-9.08267
-6.17767
-3.05207
-0.12996
1.98092
-2.15775
-3.31793
-2.69001
-2.16562
-1.27636
0.747711
3.22368
5.34543
7.01215
7.87388
7.17586
4.89011
1.92827
-0.108698
-1.5048
-6.46641
-8.14059
-8.50305
-8.65723
-7.75536
-6.61247
-4.69644
-2.12432
-0.147646
1.67459
-5.31682
-4.22422
-2.73889
-1.5537
0.202941
3.3957
6.5453
8.99667
10.7491
11.4867
10.7731
8.81876
6.60031
5.192
3.74495
-0.60522
-2.83538
-3.59325
-4.39291
-4.55337
-4.26666
-3.4347
-1.46131
-0.276009
1.45734
-3.73981
-0.923396
2.09195
3.32643
4.99249
8.78249
11.4368
13.1008
14.037
14.023
13.117
11.665
10.2769
8.74059
6.87291
3.70639
0.911854
-0.15331
-1.70405
-2.45565
-3.02146
-2.57853
-1.29225
-0.101929
0.97263
0.626145
1.48131
2.13423
2.86278
3.8937
5.21616
5.84861
6.41348
6.42674
6.2421
5.94529
5.57528
5.11276
4.66944
3.82106
3.08961
2.10007
1.30254
0.222911
-0.416061
-1.04125
-1.06965
-0.759232
-0.43025
0.16586
)
;

boundaryField
{
    inlet
    {
        type            calculated;
        value           uniform 0;
    }
    outlet
    {
        type            calculated;
        value           nonuniform List<scalar> 
57
(
-2.61963
-0.919771
2.48521
4.29678
5.25736
5.58571
5.91238
6.20449
6.54937
6.82652
6.84466
6.78872
6.7178
6.65524
6.61086
6.55967
6.65008
6.84669
7.10215
7.3741
7.6292
7.89914
8.19062
8.37096
8.39484
8.236
7.84816
7.15022
6.02731
4.62006
3.08314
1.46323
-0.317701
-2.02802
-3.02925
-3.75297
-4.01482
-3.94215
-3.75062
-2.86432
-1.47883
0.396034
1.52213
2.29609
2.78223
3.09093
3.25068
3.31596
3.32617
3.27589
3.12001
2.77679
1.98092
1.67459
1.45734
0.97263
0.16586
)
;
    }
    upperWall
    {
        type            calculated;
        value           nonuniform List<scalar> 
223
(
3.99957e-05
-8.54576e-05
-8.55652e-05
-0.00222885
-0.00360942
-0.0102685
-0.0133192
-0.026312
-0.0294149
-0.050284
-0.0603834
-0.0535405
-0.0968907
-0.0886068
-0.144456
-0.120575
-0.134961
-0.171919
-0.179506
-0.184273
-0.197552
-0.209749
-0.222826
-0.231892
-0.243752
-0.253887
-0.26674
-0.278187
-0.290411
-0.302599
-0.313592
-0.327083
-0.336991
-0.352226
-0.361169
-0.379074
-0.388226
-0.409941
-0.420434
-0.446066
-0.459794
-0.489992
-0.509528
-0.544759
-0.573088
-0.613793
-0.654484
-0.701232
-0.757869
-0.811404
-0.887203
-0.948663
-1.046
-1.11713
-1.23708
-1.32038
-1.46218
-1.56077
-1.72148
-1.83862
-2.01281
-2.15107
-2.33071
-2.49018
-2.66614
-2.84037
-3.00248
-3.17885
-3.31041
-3.47545
-3.55976
-3.68735
-3.70282
-3.76443
-3.68445
-3.65261
-3.43264
-3.28428
-2.84547
-2.56303
-1.78662
-1.34047
-0.101323
0.646886
2.32689
3.91818
5.59166
9.38643
10.058
18.1685
17.8735
30.0248
37.6708
40.4401
92.6311
82.9612
18.9625
-19.3694
-24.236
-19.7804
-1.48789
-1.97902
14.3287
15.1745
4.12297
0.744641
4.15841
3.65421
1.56734
2.26927
3.13079
2.58481
1.89332
1.92115
2.21429
2.3265
2.16484
2.08861
1.90124
1.48709
1.10436
0.76082
0.444509
0.192904
-0.00495898
-0.127447
-0.172005
-0.167655
-0.138387
-0.096559
-0.0602097
-0.0416162
0.0885291
0.265357
0.354013
0.208168
-0.665106
-3.89685
-7.72978
-12.6963
-17.6858
-21.6119
-23.8725
-24.406
-23.3624
-20.9958
-17.5587
-13.279
-8.29536
-3.10319
2.64481
9.1736
11.8197
17.8288
22.3934
26.7058
30.2993
32.8323
35.1549
35.9597
35.4836
33.7472
30.8723
27.1095
22.7557
18.2525
13.983
10.1945
7.12052
3.01156
2.70987
2.39476
2.03358
1.62112
1.13843
0.565608
-0.108996
-0.888927
-1.75968
-2.7066
-3.70391
-4.71363
-5.65473
-6.46806
-7.08792
-7.47354
-7.57743
-7.40462
-6.90268
-5.9868
-4.8617
-3.99464
-2.79636
-1.43461
-0.515777
0.507419
0.915976
0.677684
0.626145
1.48131
2.13423
2.86278
3.8937
5.21616
5.84861
6.41348
6.42674
6.2421
5.94529
5.57528
5.11276
4.66944
3.82106
3.08961
2.10007
1.30254
0.222911
-0.416061
-1.04125
-1.06965
-0.759232
-0.43025
0.16586
)
;
    }
    lowerWall
    {
        type            calculated;
        value           nonuniform List<scalar> 
250
(
-0.000971454
0.0013645
0.000248539
0.00684857
0.0109627
0.0374431
0.0475185
-0.0159645
0.177589
0.111333
0.172573
0.189007
0.263336
0.279677
0.353655
0.477856
0.271577
0.685645
0.0138339
0.0837132
0.169903
0.12847
-0.347917
-1.77229
0.388362
7.48386
16.3587
23.7481
28.9915
32.887
37.5522
42.0457
44.5262
45.7189
45.0482
41.3556
42.3762
38.174
31.9518
28.2926
22.6492
18.1994
12.0256
3.57159
1.6184
0.0138339
0.0237939
0.0558654
0.200975
0.540734
0.98707
1.51174
2.15119
2.81835
3.4589
3.97048
4.30736
4.46763
4.48433
4.39923
4.11935
4.00848
3.40389
3.2245
2.90377
2.52994
2.12445
1.68691
1.21054
0.696325
0.160965
-0.345381
-0.784277
-1.07971
-1.24153
-1.29596
-1.13635
-1.28363
-1.55549
-1.90369
-3.56949
-7.71699
-2.07039
-4.5727
-12.1594
-53.2442
-53.8854
-42.6268
-37.6472
-33.7796
-31.0495
-28.6543
-26.7108
-24.8817
-23.2752
-21.7059
-20.2382
-18.7873
-17.3664
-15.9606
-14.5328
-13.1251
-11.6808
-10.2656
-8.80067
-7.36447
-5.89886
-4.47699
-2.99895
-1.56827
-0.160538
1.22259
2.59146
3.90258
5.16103
6.33979
7.54108
8.66022
9.63042
10.441
11.121
11.7874
12.6936
13.3161
14.0092
14.3112
14.6657
15.6838
17.0033
16.3737
16.242
16.8464
16.8904
17.104
17.3846
17.5811
17.7484
17.8638
18.0025
18.1905
18.4137
18.7572
19.2294
19.7349
20.1785
20.6517
21.3378
22.2376
23.061
23.197
24.2993
25.116
26.1131
27.2713
28.6893
29.4517
30.259
30.7456
30.6997
29.6272
24.5377
18.2504
17.4378
17.2717
17.274
16.7089
16.439
15.775
15.0315
14.3346
13.6014
12.9767
12.3401
11.6782
11.0447
10.465
9.9202
9.33702
8.79098
8.20578
7.69385
7.15735
6.5959
6.14677
5.72564
5.37763
5.066
4.83895
4.70751
4.69176
4.75035
4.93076
5.26609
5.59365
5.97178
6.5715
7.17257
7.84893
8.86523
9.95487
11.1838
13.2758
16.3497
19.1409
20.1079
18.9101
16.1286
12.48
8.77409
5.68827
3.47374
1.97845
0.872146
-0.145679
-1.18515
-2.13527
-2.86017
-3.42361
-3.715
-4.44228
-5.2862
-6.28326
-5.96725
-5.7483
-5.26977
-3.8697
-3.1301
-1.31671
-0.79199
-0.647608
-0.500482
-0.392533
-0.306905
-0.371342
-0.379394
-0.481732
-0.612674
-1.08526
-1.53481
-2.1926
-2.70161
-3.23792
-3.60673
-3.77013
-3.80956
-3.75672
-3.6009
-3.17226
-2.86646
-2.61963
)
;
    }
    frontAndBack
    {
        type            empty;
    }
}


// ************************************************************************* //
