/*--------------------------------*- C++ -*----------------------------------*\
| =========                 |                                                 |
| \\      /  F ield         | OpenFOAM: The Open Source CFD Toolbox           |
|  \\    /   O peration     | Version:  2112                                  |
|   \\  /    A nd           | Website:  www.openfoam.com                      |
|    \\/     M anipulation  |                                                 |
\*---------------------------------------------------------------------------*/
FoamFile
{
    version     2.0;
    format      ascii;
    arch        "LSB;label=32;scalar=64";
    class       volScalarField;
    location    "0.06";
    object      ddt0(k);
}
// * * * * * * * * * * * * * * * * * * * * * * * * * * * * * * * * * * * * * //

dimensions      [0 2 -3 0 0 0 0];

internalField   nonuniform List<scalar> 
12225
(
-0.000175156
7.61045e-05
-0.000314784
0.00386213
0.00258771
0.00733254
0.00890737
0.10859
-0.0527454
0.0586321
0.0551822
0.0811621
0.107247
0.131392
0.13057
0.143565
0.628466
0.110073
-0.000668053
0.000515883
-0.00162789
0.0116631
0.00305327
-0.25558
0.394627
0.0720777
-1.1425
0.987339
-0.127504
0.0230935
0.125236
-0.509007
-0.229015
1.19934
-0.376375
-2.51481
-0.000153463
0.000164392
-0.00157186
0.0044303
-0.013287
0.0100661
0.0563545
-0.0695648
-0.00717511
0.0735066
-0.0814302
0.078244
-0.02419
-0.141454
0.0315435
0.601837
-0.321092
-0.960866
-5.2868e-05
0.000124506
-0.00039744
0.00114586
-0.00322487
0.0111471
0.000737977
-0.0105348
0.0086598
0.0118653
-0.00986407
0.0151795
0.00758369
-0.0400545
0.0529244
0.207547
-0.321434
-0.144216
-1.88533e-05
0.00011788
8.14009e-05
0.000686468
4.05269e-05
0.00519674
-0.000479961
-0.000442464
0.00430814
0.00477888
0.00166172
0.00615456
0.00628992
-0.00533543
0.0241715
0.0693669
-0.0887709
-0.0374732
-5.11332e-06
0.000126072
0.000278873
0.00074771
0.000975513
0.0029953
0.000969365
0.00172824
0.00339189
0.00407301
0.00381168
0.0054649
0.00673815
0.00240444
0.0112406
0.0415448
-0.0252446
-0.0251134
-3.60831e-06
0.000133055
0.000373953
0.000848502
0.00130073
0.00232325
0.0018488
0.00253618
0.00350989
0.00428822
0.0046851
0.00591111
0.00690057
0.00533158
0.010217
0.0229925
-0.00659209
-0.00514004
-8.41669e-06
0.000131749
0.000418291
0.000918079
0.00144201
0.00216108
0.00233615
0.00300118
0.00382121
0.00462455
0.00527935
0.0063263
0.00708879
0.00702113
0.0100781
0.01357
0.00187902
0.00598468
-1.49407e-05
0.000117739
0.000428495
0.000945321
0.00150302
0.0021469
0.00261228
0.00330184
0.00409502
0.00490716
0.00567081
0.00658412
0.00729571
0.00782564
0.00946615
0.0100585
0.00667541
0.00878854
-2.8285e-05
8.509e-05
0.000414228
0.000924869
0.00150673
0.00214639
0.00274992
0.00347044
0.00426119
0.00507036
0.00585904
0.00667415
0.00735916
0.00797869
0.00880158
0.00887207
0.00807366
0.00866242
-5.79076e-05
4.6689e-05
0.000374545
0.000868574
0.00145639
0.00210414
0.0027717
0.00350971
0.00429209
0.00508085
0.00584451
0.00657298
0.00719237
0.00771293
0.008127
0.00811624
0.00782374
0.00765712
-7.54993e-05
-5.98082e-07
0.000306143
0.000779079
0.0013577
0.0020038
0.00268934
0.00342362
0.00418293
0.00493372
0.00564447
0.00628695
0.00681248
0.00719913
0.00739825
0.00730093
0.00697399
0.00646749
-8.55851e-05
-4.89424e-05
0.000220343
0.000660452
0.00121595
0.00184645
0.00252391
0.00323624
0.00395766
0.00465553
0.00529661
0.00584624
0.00626378
0.0065153
0.00655703
0.00634691
0.0058982
0.00519841
-8.95556e-05
-9.7631e-05
0.000112912
0.00049672
0.00100337
0.00159092
0.00222752
0.00288791
0.0035423
0.00415718
0.00469772
0.00512764
0.00541005
0.00551096
0.00539834
0.00505115
0.00446613
0.00362821
-8.67313e-05
-0.000136361
-1.44828e-06
0.000296258
0.000716205
0.00121857
0.00176697
0.00232954
0.00287239
0.00336093
0.00376001
0.00403485
0.00415284
0.00408566
0.00381161
0.00331908
0.0026058
0.00166145
-7.66295e-05
-0.00015452
-0.000100302
8.42618e-05
0.00037326
0.000733862
0.00113166
0.00153161
0.00190011
0.0022035
0.0024084
0.00248452
0.0024054
0.00215052
0.00170704
0.00107093
0.000245489
-0.000772375
-5.88999e-05
-0.000144171
-0.000160246
-0.00010165
1.89383e-05
0.000179994
0.000355252
0.000516394
0.00063457
0.000679696
0.000627346
0.000454852
0.000143257
-0.000319071
-0.000936684
-0.00170605
-0.0026163
-0.00365994
-3.36166e-05
-0.000104119
-0.000170654
-0.000233911
-0.000299928
-0.000378786
-0.000483709
-0.000629961
-0.000833997
-0.00111055
-0.00147463
-0.00193955
-0.0025112
-0.00319198
-0.00397763
-0.00485575
-0.00580392
-0.00679009
-2.36009e-06
-4.4144e-05
-0.000148071
-0.000325668
-0.000579087
-0.000907298
-0.00130852
-0.00178122
-0.00232464
-0.00293837
-0.00362224
-0.00437436
-0.00519087
-0.00606274
-0.00697894
-0.0079188
-0.00884657
-0.0097062
2.36025e-05
-3.58507e-06
-0.000150868
-0.000426711
-0.000821201
-0.001321
-0.00191244
-0.00258309
-0.00332207
-0.00412013
-0.00496892
-0.00585901
-0.00678151
-0.00772656
-0.00867648
-0.00960648
-0.0104793
-0.0112268
3.84284e-05
2.58279e-06
-0.000191934
-0.000535536
-0.00100479
-0.00157942
-0.00224217
-0.00297791
-0.0037736
-0.00461793
-0.00550049
-0.0064109
-0.0073387
-0.00827161
-0.00919432
-0.0100863
-0.0109132
-0.0116102
4.42553e-05
-1.60153e-05
-0.000251419
-0.000628649
-0.0011169
-0.00169784
-0.00235509
-0.00307571
-0.00384743
-0.00465976
-0.00550266
-0.00636616
-0.00724014
-0.00811372
-0.00897418
-0.00980628
-0.0105848
-0.0112602
4.14631e-05
-4.53303e-05
-0.000300385
-0.000673233
-0.00113466
-0.00167481
-0.002277
-0.00293414
-0.00363398
-0.00436807
-0.00512756
-0.00590332
-0.00668787
-0.00747125
-0.00824136
-0.00899138
-0.0097055
-0.0103547
3.0262e-05
-6.76763e-05
-0.000316849
-0.000657001
-0.00106027
-0.00153544
-0.0020516
-0.00262017
-0.00322191
-0.00385269
-0.00450637
-0.00517052
-0.00584627
-0.00652954
-0.00718969
-0.0078391
-0.00847869
-0.00908431
8.69318e-06
-6.65974e-05
-0.000293973
-0.000588262
-0.000909058
-0.0013189
-0.00172134
-0.00219631
-0.00268882
-0.00320534
-0.00375541
-0.00429652
-0.00484561
-0.00547502
-0.00602593
-0.00651751
-0.00712776
-0.00771752
2.60402e-06
-6.84316e-05
-0.000238248
-0.000489262
-0.000688967
-0.00107681
-0.00131287
-0.00172145
-0.00211129
-0.00250382
-0.00300572
-0.00345662
-0.00373896
-0.00450679
-0.00529464
-0.00502991
-0.00580011
-0.00670672
2.55116e-06
-5.6022e-05
-0.000161486
-0.000396095
-0.00037282
-0.000896738
-0.000814088
-0.00125775
-0.00159736
-0.00180409
-0.00238737
-0.00318225
-0.00245513
-0.00244268
-0.00873423
-0.00289286
-0.00244773
-0.00626297
8.81097e-06
-3.97134e-05
-4.27298e-05
-0.000329687
0.000155311
-0.00084767
3.98369e-05
-0.000597433
-0.000864726
-0.000604565
-0.000647728
-0.00347062
-0.00390483
0.0176456
-0.0226302
-0.0364762
0.0482735
0.00972552
5.94141e-05
-9.19186e-05
0.000343327
0.0005286
0.00100278
0.000991206
0.00368354
0.00315506
0.00536741
0.00583646
0.00766229
0.00937895
0.0120641
-0.64528
1.96804
-2.53002
1.0225
0.488861
0.000126663
-0.000188866
0.000124817
-0.00094445
-0.000999449
-0.00370852
-0.00428514
-0.0093308
-0.0100614
-0.0181165
-0.0192092
-0.0340704
-0.0257433
-0.0360067
-0.0374488
-0.0875157
-0.0352227
-0.0581769
0.172104
1.01883
2.1637
2.87355
3.07363
3.40323
3.26883
3.32117
3.55672
3.75484
3.67409
3.73868
3.7921
3.46812
2.64452
2.38142
1.90632
1.1592
0.617195
0.23557
-0.0332698
-0.131039
-0.0616259
0.119594
0.377392
0.643821
0.86866
1.0269
1.10793
1.06781
0.906639
0.533061
0.221122
-0.101012
-0.72982
-0.991719
-1.41306
-1.8321
-3.91141
-4.06776
-1.92246
-2.45929
-5.07736
-30.5856
-36.6506
-24.172
-17.5935
-13.0338
-9.94029
-7.26209
-5.35643
-3.58452
-2.25156
-0.97577
0.0231412
0.999575
1.78352
2.55775
3.19219
3.80578
4.31527
4.77488
5.14651
5.43097
5.75281
5.98458
6.20912
6.42459
6.58993
6.77319
6.93329
7.09269
7.2664
7.41717
7.60418
7.7938
8.04326
8.32065
8.68656
8.8536
9.14672
9.5933
10.1616
10.4499
10.7205
11.6299
11.834
12.7074
13.0688
14.0483
14.5004
15.4042
16.1329
17
17.8489
18.7422
19.6099
20.5195
21.3504
22.2269
23.1808
24.0222
24.9893
25.8574
26.8049
27.6837
28.5637
29.4012
30.2015
30.9761
31.6464
32.187
32.5071
32.5981
32.2503
31.7551
30.9114
29.4988
27.2367
25.5661
22.2545
16.6265
7.40352
4.6518
3.3956
3.47982
4.00888
3.7723
4.10204
5.26874
6.51968
7.39617
8.98439
10.8822
12.4405
13.6375
14.618
15.4459
16.1177
16.6263
17.1183
17.2968
17.7786
18.0349
17.9306
18.1887
18.4289
18.501
18.2733
17.7291
16.8962
15.754
14.4072
12.921
11.2963
9.67704
8.1263
6.64966
5.272
4.11298
3.10142
2.35035
1.85116
1.49804
1.5265
1.85709
2.3486
2.83503
3.76163
5.65344
7.98455
9.904
11.0201
9.20479
5.88954
3.08627
1.16142
-0.093554
-0.483318
-1.43761
0.304047
0.633583
0.866863
0.11933
-2.34183
-3.59818
-4.26817
-3.88812
-3.19558
-2.28679
-1.47256
-0.510979
-0.085852
-0.758223
-1.11589
-1.91335
-2.776
-3.58857
-4.25184
-4.75218
-5.04038
-5.05103
-4.72008
-4.13883
-3.38709
-2.49602
-1.59617
-0.826968
-0.269276
0.0333522
-0.0483929
-0.220412
-0.757294
-2.21232
-3.00605
-4.69768
-7.77197
-10.1367
-9.53177
-18.6921
-33.9927
-14.7843
-2.36896
-21.5015
-18.2938
-11.6171
-11.1646
-7.20159
-6.68976
-1.88787
-0.00063593
4.05093
6.87981
10.793
14.0437
17.843
21.1565
24.7472
27.9633
31.3183
34.4409
37.5988
40.5291
41.8325
43.8286
45.2235
46.4466
47.5861
48.3912
49.1257
49.6328
50.0119
50.2485
50.3374
50.3339
50.2396
49.9953
49.7331
49.3423
49.2008
49.0762
48.8664
48.7528
48.4496
48.2844
48.4096
48.1021
48.1225
48.5055
48.4906
48.8474
49.4159
50.0016
50.8937
51.9571
53.0756
54.3208
55.6725
56.7914
56.6868
57.9023
61.3104
62.825
64.6223
66.6274
68.7604
71.0341
73.437
75.971
78.6054
81.2926
84.2257
87.465
91.054
92.4459
93.639
94.8923
96.2704
98.0037
98.2162
97.5459
94.7416
93.0642
91.7512
89.7681
87.3056
86.8409
87.4223
84.7081
82.4043
79.097
76.393
73.8846
71.5272
68.3829
64.9309
61.688
58.1512
54.5448
50.7932
46.6841
43.1509
38.9428
34.9832
32.4003
29.95
27.5309
25.1934
22.924
20.7793
18.9841
17.2431
15.9427
14.8719
13.985
13.3854
13.0306
12.8036
12.4276
12.2294
12.3148
12.1255
12.0244
12.1394
12.183
11.924
11.6834
11.583
11.5715
10.6894
9.95712
10.1576
9.5083
6.96867
4.66644
4.14824
3.28685
3.91627
4.65817
6.70573
0.276689
0.189891
-0.684928
-3.03918
-5.37495
-7.4463
-8.37689
-7.89743
-7.28761
-6.26194
-5.18101
-4.58081
-4.37548
-4.74093
-5.07132
-6.10943
-7.03253
-7.84357
-8.63658
-9.22262
-9.50118
-9.43174
-8.9416
-8.16187
-7.14696
-5.95253
-4.72721
-3.60266
-2.73478
-2.18829
-2.15623
-2.30276
-4.56812
-6.07554
-9.31726
-14.8964
-22.8443
-38.4866
-21.4753
0.867707
0.730838
-1.92524
-13.4959
-15.7577
-17.2636
-13.9222
-12.1492
-7.24105
-3.46181
2.38021
7.074
13.6222
18.9625
24.934
29.9608
34.9992
39.2891
43.3437
46.7887
49.8705
52.4006
54.4857
56.072
58.6322
60.5209
62.2213
63.7131
64.934
65.9368
66.7427
67.3077
67.6934
67.8913
67.9111
67.7767
67.5059
67.1182
66.6419
66.092
65.5143
64.8901
64.2728
63.6516
63.0531
62.5246
61.9775
61.4422
61.0403
60.5156
60.175
60.0501
60.0665
60.3905
61.0589
62.0993
63.3257
64.9712
65.5658
67.0698
72.6334
75.2753
77.2378
79.5408
82.2211
85.2359
88.5256
92.0851
95.9114
100.014
104.338
108.709
113.501
118.72
125.202
130.626
135.608
140.376
144.912
149.533
153.801
157.894
162.598
165.898
168.288
168.575
166.686
161.358
158.912
152.726
145.204
136.145
126.68
117.02
107.848
98.2965
89.3948
81.9157
74.7364
68.1159
62.0445
56.255
51.1058
46.0899
41.5594
37.768
34.2556
31.2946
28.7721
26.4998
24.4674
22.7385
21.2275
19.7851
18.6836
18.0962
17.5908
16.9835
16.5808
16.2469
15.9799
15.9472
15.777
15.5932
15.5864
15.5432
15.2739
15.3437
15.4447
15.2033
14.6267
14.625
14.8294
14.6413
13.836
12.196
11.0199
8.80939
8.20457
6.76288
6.59467
-0.257623
-0.163977
-0.894887
-1.92573
-3.04268
-2.8571
-2.94942
-3.36372
-3.73888
-2.62433
-2.84024
-3.59364
-4.04478
-5.16889
-5.63229
-6.59487
-7.78786
-9.04758
-10.2489
-11.2408
-11.8682
-12.0233
-11.6739
-10.8999
-9.77164
-8.39737
-6.98308
-5.67719
-4.656
-4.0808
-4.22625
-5.97397
-7.80596
-12.4526
-21.9062
-38.1113
-25.4587
-3.11738
11.3758
3.11399
-2.8465
-13.8444
-20.0882
-21.3564
-20.414
-17.5097
-13.7503
-8.06974
-2.76785
3.72166
9.7972
16.3261
22.3493
28.3231
33.8257
39.0719
43.8892
48.3808
52.4922
56.2798
59.734
62.9108
65.8503
68.6297
71.0259
73.1256
74.9351
76.426
77.6586
78.6401
79.3188
79.7644
79.9515
79.8853
79.5921
79.0436
78.3249
77.4494
76.4596
75.4082
74.3129
73.2204
72.1568
71.1692
70.2998
69.5586
68.9911
68.8905
67.7334
66.8056
66.0728
65.5254
65.1615
65.0409
65.888
66.2313
66.6962
68.6508
70.9191
74.2134
78.1085
80.9579
84.2356
88.0317
92.2925
96.9627
102.023
107.459
113.431
119.678
126.022
132.893
140.003
147.042
155.089
163.433
171.533
179.587
188.257
197.072
205.629
213.429
218.124
223.31
226.039
226.042
222.959
207.112
196.018
184.794
171.968
157.771
143.137
129.197
115.166
101.952
91.7344
81.893
72.9854
65.1094
58.2679
52.18
46.7823
41.8443
37.8204
34.6475
31.878
29.5211
27.5303
25.8601
24.4908
23.3709
22.4165
21.6992
21.2187
20.785
20.359
20.0518
19.7179
19.3597
19.0808
18.7443
18.3577
17.9865
17.64
17.2875
17.0603
16.6859
16.528
16.4525
16.6846
17.0336
17.1356
16.5808
15.6983
14.4815
12.3445
11.5137
9.88376
8.43709
-0.491679
0.806407
2.42909
4.19344
5.13887
3.54228
3.75181
1.15631
-2.35332
-6.87008
-9.84936
-11.7397
-12.1742
-12.6407
-12.5159
-12.3169
-12.2277
-12.3946
-12.8297
-13.4009
-13.8862
-14.0638
-13.8025
-13.0932
-12.0172
-10.4977
-8.94088
-7.54413
-6.4807
-5.98679
-6.88972
-9.26275
-14.9881
-27.4407
-38.2014
-15.4277
4.4206
11.8012
3.38296
-5.1055
-20.3462
-26.9806
-24.9196
-24.0591
-21.88
-17.7229
-13.0107
-7.21749
-1.56023
4.72514
10.8969
17.2157
23.3583
29.3982
35.2113
40.803
46.1255
51.1693
55.9325
60.4018
64.6004
68.5091
72.1173
75.4018
78.3088
80.8456
83.0167
84.7769
86.2194
87.3355
88.1665
88.73
89.0323
89.0984
89.0281
88.2674
87.3222
86.1935
84.9117
83.5106
82.0356
80.5229
79.0135
77.5578
76.1969
74.9942
74.0584
73.8495
72.5597
71.4339
70.5611
69.932
69.4193
69.1416
68.999
69.3878
70.024
71.2067
72.5714
74.2255
76.5195
79.498
83.1449
87.4288
92.2481
97.5734
103.373
109.481
115.093
121.508
129.189
137.342
145.825
154.71
164.045
173.875
183.942
194.697
205.819
216.892
227.774
237.817
245.343
249.329
253.008
253.65
250.006
250.388
243.531
230.84
214.009
194.42
173.463
152.658
132.04
112.831
96.6866
82.146
70.8301
62.3887
54.9407
48.892
43.8667
39.5126
35.991
33.2749
30.9052
28.9217
27.3057
26.0104
25.0137
24.2551
23.6736
23.2587
22.9804
22.7338
22.4762
22.2413
21.9396
21.5526
21.1326
20.6527
20.0931
19.4778
18.8979
18.3382
17.8396
17.2745
16.9332
16.6723
16.6743
16.7584
16.8921
16.6578
16.2796
15.4102
14.2385
13.7944
13.028
10.8284
3.3611
5.24399
8.85506
8.26338
6.61357
1.93971
-6.00229
-10.2479
-13.8947
-15.3778
-17.2277
-17.8873
-18.018
-17.8086
-17.3648
-16.8147
-16.2954
-15.9771
-15.9075
-16.0298
-16.1855
-16.171
-15.8363
-15.1239
-14.1094
-12.6369
-11.059
-9.58998
-8.64449
-8.91325
-10.5717
-15.7402
-25.9877
-33.8429
-12.9447
5.22617
15.9567
1.96735
-5.73817
-22.2595
-25.8595
-27.9931
-26.8145
-24.3899
-21.184
-16.6841
-11.9276
-6.58471
-1.15479
4.64113
10.5217
16.5451
22.5714
28.5939
34.5589
40.397
46.0948
51.6128
56.9206
61.9895
66.8127
71.3851
75.6535
79.583
83.0648
86.1853
88.9781
90.9656
92.6114
93.9218
94.9262
95.6447
96.1127
96.3783
96.5856
95.9868
95.2311
94.2473
93.1055
91.8277
90.4463
88.9894
87.485
85.9565
84.4135
82.8665
81.3016
79.4678
78.1641
76.4579
75.373
74.6779
73.517
72.85
72.4365
72.5208
72.7359
73.4101
74.4168
75.6448
76.7047
78.7834
81.6495
85.0469
88.9618
93.4243
98.4853
104.229
110.104
117.183
124.785
132.764
141.087
149.805
158.984
168.948
183.275
194.594
206.213
217.96
229.681
240.715
249.41
260.846
269.637
274.382
274.328
268.885
257.725
241.633
221.738
199.091
175.267
151.552
128.467
107.377
88.8995
72.9643
60.5064
50.3054
44.4042
39.5418
35.8863
33.1113
30.8798
29.0004
27.6204
26.5963
25.7824
25.1316
24.5688
24.1667
23.8778
23.6904
23.5797
23.4739
23.3173
23.1325
22.8617
22.4756
21.996
21.4324
20.772
20.0352
19.3151
18.6049
17.9576
17.2963
16.8327
16.4551
16.3124
16.2203
16.2945
16.0906
15.9094
15.2885
14.4123
14.1593
13.6977
12.1549
8.02608
8.73726
8.89558
2.68341
-6.04136
-10.7247
-14.1637
-16.0644
-18.3884
-19.1338
-19.7818
-20.1032
-20.0889
-19.8102
-19.3676
-18.8704
-18.3938
-18.0551
-17.9052
-17.8834
-17.8998
-17.7014
-17.4595
-16.7438
-15.9603
-14.6828
-13.2564
-12.0423
-11.464
-12.2602
-15.6297
-22.7578
-29.1313
-15.5467
-0.939386
12.7919
0.703221
-5.72725
-23.9127
-26.852
-28.278
-28.5148
-26.4551
-23.5539
-20.0463
-15.8685
-11.4919
-6.75749
-1.83327
3.36822
8.78521
14.4111
20.158
26.0185
31.934
37.8631
43.7721
49.616
55.3493
60.9296
66.3494
71.6209
76.6328
81.3546
85.3049
88.898
92.2371
94.5951
96.6966
98.4168
99.8151
100.894
101.652
102.073
102.091
102.043
101.744
101.221
100.507
99.6183
98.5783
97.413
96.1576
94.8465
93.5126
92.1293
90.9058
89.2776
88.1676
85.8392
84.0383
82.752
81.1285
79.5452
77.8691
75.9755
74.9309
74.2174
73.8077
73.7722
73.7718
74.7962
76.3031
78.2926
80.836
84.0036
87.9008
92.9529
101.997
108.843
115.875
123.337
131.251
139.651
148.562
158.078
167.908
177.803
189.196
201.726
214.899
228.161
240.975
252.383
261.01
265.519
264.625
257.563
244.149
225.342
202.879
177.981
152.655
128.369
105.369
85.1345
67.8463
53.4186
42.607
33.5559
27.6154
25.5153
24.1826
23.4363
23.0855
22.9628
22.9927
23.0465
23.1136
23.1697
23.2356
23.2992
23.3103
23.345
23.2738
23.2215
23.083
22.9215
22.6813
22.3173
21.8323
21.2446
20.556
19.7894
19.0209
18.257
17.5632
16.8839
16.3762
15.9565
15.75
15.5879
15.5907
15.4242
15.3137
14.8618
14.188
14.0538
13.7603
12.7157
0.778257
4.90006
-3.87497
-10.2962
-13.6534
-16.1978
-17.6858
-18.6896
-19.7118
-20.5896
-20.989
-20.9982
-20.7199
-20.2604
-19.7229
-19.1899
-18.7417
-18.3852
-18.2737
-18.3815
-18.5927
-18.6294
-18.4918
-18.0997
-17.4892
-16.735
-15.9667
-15.0446
-14.8216
-16.2921
-20.3356
-25.226
-19.0511
-8.5715
3.17947
2.01182
-3.65634
-19.4879
-28.0817
-28.4642
-28.6665
-27.7051
-25.4245
-22.5797
-19.3226
-15.6996
-11.8995
-7.86551
-3.5845
0.984776
5.80354
10.8822
16.1868
21.7
27.3849
33.2087
39.1378
45.1349
51.1643
57.1964
63.2311
69.2093
74.8438
80.0766
84.1312
87.8334
90.9924
93.9489
96.608
98.9436
100.991
102.743
104.2
105.367
106.278
106.926
107.304
107.403
107.237
106.813
106.137
105.226
104.131
102.901
101.651
99.8692
98.7276
96.5204
94.2425
91.4657
88.6273
85.5922
82.8839
80.276
77.5516
75.0477
72.7644
70.6484
68.8406
67.7244
68.6773
68.8145
69.216
70.1167
71.631
73.8318
76.7657
80.3936
83.5527
88.149
93.6307
99.9214
106.936
114.618
122.878
131.736
141.595
152.389
164.262
177.097
190.613
204.17
217.153
228.35
236.27
239.606
236.727
227.065
210.923
189.197
164.633
138.785
113.585
91.2304
70.5927
53.0326
39.4487
28.1153
20.4335
14.9561
10.1952
10.1808
11.5974
12.6949
14.1202
15.7906
17.3009
18.6278
19.7174
20.5601
21.198
21.6755
21.9962
22.2321
22.3396
22.3649
22.332
21.9989
21.7518
21.4123
20.9547
20.3904
19.7309
18.9995
18.2571
17.5201
16.8539
16.2186
15.7301
15.328
15.1136
14.9468
14.9167
14.802
14.7201
14.4224
13.8653
13.7751
13.5822
12.8709
-2.76825
-3.99953
-9.80663
-13.6723
-16.2869
-17.7829
-18.8602
-18.6942
-18.5532
-18.1657
-17.7961
-17.444
-17.1515
-16.9903
-16.9166
-16.9009
-16.9589
-17.2344
-17.5673
-17.882
-18.1675
-18.4372
-18.6774
-18.6947
-18.507
-18.1895
-17.8836
-17.7284
-18.1425
-19.7434
-22.4852
-23.0998
-11.9949
-5.29448
4.46769
-2.54103
-12.1388
-26.2653
-28.5469
-28.4331
-27.8898
-26.4998
-24.4016
-21.9269
-19.1852
-16.2273
-13.1308
-9.82569
-6.26749
-2.45195
1.64513
6.04304
10.7401
15.731
20.9985
26.5218
32.2777
38.2501
44.4335
50.8007
57.2552
63.5007
69.085
73.8927
78.3271
82.3439
86.0438
89.51
92.7205
95.6451
98.291
100.65
102.717
104.489
105.972
107.157
108.046
108.608
108.816
108.673
108.173
107.336
106.187
104.912
103.753
101.548
98.6637
95.8186
93.0182
89.8543
86.7462
83.4597
80.1052
76.8831
74.8897
71.745
68.7224
65.7356
62.9562
60.4595
57.8616
56.0495
54.8714
54.3303
54.4589
55.299
56.8847
59.2132
62.2184
65.9767
70.5045
75.8336
81.9186
88.716
96.0589
104.081
113.167
123.253
134.481
146.735
159.779
172.716
184.955
194.801
200.623
201.316
194.981
181.807
162.855
139.56
114.999
91.1356
68.2114
49.9837
33.9513
20.2012
11.9544
4.48347
-0.668712
-1.81727
-4.42445
-3.62504
0.947602
2.80895
4.81718
9.2918
11.6283
14.061
16.0646
17.6344
18.8282
19.7029
20.2998
20.6858
20.8762
20.9073
20.8365
20.7316
20.4594
20.1296
19.7122
19.2035
18.6126
17.9594
17.2932
16.6351
16.0429
15.4906
15.0618
14.7143
14.5254
14.3884
14.3575
14.2982
14.236
14.0567
13.5976
13.4959
13.3397
12.8292
-5.03982
-7.88606
-13.3603
-16.2582
-17.5434
-18.0174
-17.3525
-16.3993
-14.3816
-12.8808
-11.9572
-11.3944
-11.2071
-11.4743
-12.0862
-12.8285
-13.6362
-14.4691
-15.3265
-16.1776
-16.9997
-17.6052
-17.9515
-18.4708
-18.6374
-18.7502
-18.8273
-19.1476
-20.0563
-21.6999
-22.8828
-17.3531
-10.0255
2.58003
-1.40828
-6.53835
-22.6925
-26.9001
-27.848
-27.4964
-26.6902
-25.3565
-23.6406
-21.6921
-19.5874
-17.3746
-15.0464
-12.5459
-9.83811
-6.87847
-3.62269
-0.0335383
3.91276
8.22915
12.9164
17.9689
23.374
29.1241
35.1962
41.5001
47.7949
53.6889
58.9125
63.8629
68.364
72.5384
76.4721
80.1991
83.7016
86.9515
89.948
92.6747
95.1165
97.2619
99.0945
100.581
101.646
102.28
102.539
102.44
101.991
101.192
99.9638
98.9344
97.3574
95.3527
92.9246
90.3528
87.8439
85.9094
82.9403
79.62
76.0704
72.3894
68.5403
64.5254
60.6945
56.9849
53.4514
50.1554
47.1244
44.4995
42.3948
40.8712
39.9689
39.7299
40.187
41.3289
43.1713
45.7077
48.9495
52.9551
57.6826
63.0617
68.9509
75.7928
83.7127
92.663
102.818
114.038
126.017
137.595
148.062
155.132
157.699
154.103
143.876
128.162
108.125
86.6007
64.7802
46.2633
28.6607
14.9941
4.84978
-5.91142
-8.7459
-11.6947
-15.6141
-15.401
-15.3641
-13.6457
-9.02902
-4.78099
0.513931
2.7493
5.89176
9.95462
12.6698
14.8199
16.4772
17.6955
18.5246
19.0616
19.3337
19.3545
19.3158
19.1574
18.9925
18.7314
18.3843
17.9579
17.4616
16.9121
16.3496
15.7975
15.3036
14.8529
14.504
14.229
14.0822
13.9886
13.9734
13.9627
13.9177
13.815
13.4395
13.305
13.1339
12.7172
-7.61164
-13.9234
-17.5825
-18.9519
-18.865
-17.6983
-15.8896
-13.8803
-12.1884
-10.4184
-8.8375
-8.27469
-8.21361
-8.37438
-8.81568
-9.58703
-10.5423
-11.6166
-12.7522
-13.8895
-14.9733
-15.964
-16.8841
-17.6614
-18.1003
-18.5024
-18.9336
-19.5662
-20.5562
-21.5243
-20.7109
-13.4742
-8.42695
-4.19325
-7.41213
-14.7064
-24.1601
-26.1352
-26.5449
-26.1738
-25.4358
-24.3963
-23.1614
-21.8204
-20.4468
-19.0603
-17.6708
-16.3607
-14.6251
-12.5917
-10.2313
-7.50281
-4.36607
-0.793722
3.22525
7.70045
12.6121
17.9229
23.5407
29.3621
35.1152
40.1486
45.1552
49.8389
54.182
58.2582
62.14
65.8498
69.3696
72.6859
75.7929
78.6754
81.3116
83.6843
85.7689
87.5498
88.9802
90.0898
90.8718
91.3108
91.4386
91.132
90.57
89.9416
88.8251
87.3747
85.5991
83.5539
81.2598
78.5552
75.7306
72.6929
69.4353
65.9725
62.3166
58.4881
54.6197
50.7636
46.9913
43.365
39.949
36.8246
34.1163
31.9003
30.2083
29.0766
28.5289
28.52
29.0636
30.1973
31.942
34.3418
37.2989
40.7376
44.8239
50.0813
56.427
63.9046
72.6123
82.427
92.6961
102.236
109.513
112.832
110.984
103.689
90.3057
74.4469
55.5067
38.5991
22.2248
9.92318
0.575375
-10.6972
-13.8659
-18.1185
-22.3776
-23.9766
-24.4581
-23.5407
-22.0235
-19.8927
-16.1308
-10.7395
-5.38417
-0.0426041
2.22126
5.31038
9.81109
12.3229
14.3537
15.8536
16.8725
17.5499
17.982
17.9253
17.9075
17.9374
17.693
17.4473
17.1658
16.8311
16.4414
16.0069
15.5601
15.1248
14.7394
14.3965
14.1358
13.9391
13.8417
13.7937
13.7993
13.8241
13.7915
13.7281
13.4135
13.2388
13.0158
12.6135
-9.96274
-17.5702
-21.1665
-21.8951
-20.882
-18.6104
-15.6648
-12.6896
-10.2067
-8.47558
-7.40924
-6.65193
-6.39006
-6.47789
-7.05758
-7.97642
-9.18374
-10.4676
-11.7555
-13.0014
-14.1674
-15.2247
-16.1508
-16.8509
-17.4038
-17.8737
-18.4449
-19.1509
-19.8814
-19.8836
-16.2751
-12.7045
-6.07091
-7.26504
-9.65345
-18.4241
-23.5194
-24.8102
-25.0478
-24.8084
-24.3394
-23.7446
-23.1223
-22.5739
-21.9958
-21.3122
-20.34
-18.6665
-17.35
-15.8916
-14.1789
-12.1467
-9.7441
-6.91166
-3.62558
0.137618
4.36142
8.957
13.8454
18.8187
23.2218
27.5908
31.8832
35.9583
39.7594
43.3197
46.6976
49.9252
53.0004
55.9108
58.6561
61.2251
63.6101
65.8038
67.8009
69.6073
71.3098
72.8013
74.0443
75.0319
75.7472
76.1635
76.3286
76.3105
76.0598
75.5358
74.7597
73.7384
72.4633
70.9006
69.0703
66.9738
64.5998
61.9345
58.9745
55.7471
52.3251
48.7736
45.1886
41.6334
38.1617
34.8575
31.8611
29.2565
27.0523
25.2649
23.9047
22.8722
22.1399
21.8235
21.9818
22.5094
23.271
24.4594
26.506
29.701
34.0986
39.7828
46.688
54.6886
62.5124
68.8092
72.3087
71.6138
65.4701
55.24
40.8091
27.46
14.0848
3.0517
-4.28607
-13.4138
-16.3297
-19.0657
-25.2531
-27.4001
-28.7851
-29.2201
-28.8478
-27.6213
-25.6467
-23.2689
-20.0895
-15.66
-10.3562
-4.37349
0.627886
2.6978
6.60442
10.0363
12.4796
14.1999
15.4184
16.2119
16.8193
16.9621
16.9881
16.6954
16.5344
16.3539
16.1434
15.8991
15.6173
15.3002
14.9726
14.6575
14.3852
14.1522
13.9835
13.8668
13.8226
13.8182
13.8445
13.8904
13.8624
13.8084
13.5275
13.3052
13.0081
12.5642
-12.6731
-23.0645
-26.395
-26.495
-24.4568
-21.1074
-17.261
-13.6232
-10.6516
-8.55012
-7.25766
-6.68637
-6.54042
-6.61886
-7.08451
-7.82967
-8.76873
-9.89056
-11.0852
-12.2734
-13.3996
-14.43
-15.3483
-16.0575
-16.5609
-16.9551
-17.3984
-17.8423
-18.0874
-17.5575
-14.9005
-11.8662
-7.80917
-9.31589
-12.2659
-19.1652
-22.2755
-23.3054
-23.5948
-23.5897
-23.47
-23.3202
-23.2228
-23.0053
-22.8081
-22.5777
-22.2499
-21.9359
-21.4849
-20.8747
-20.0775
-19.1161
-18.0321
-16.2899
-14.023
-11.2346
-7.80899
-4.07704
-0.795281
2.53489
5.74321
9.06523
12.4883
15.8798
19.1302
22.2319
25.217
28.1187
30.9513
33.714
36.4
39.0055
41.5277
43.966
46.3228
48.5956
50.732
52.7537
54.6473
56.3995
57.9956
59.4002
60.5521
61.6292
62.7498
63.5828
64.2397
64.6963
64.9236
64.8835
64.5384
63.8562
62.8075
61.3542
59.4654
57.1674
54.5146
51.5988
48.5282
45.387
42.2043
39.1099
36.1927
33.5244
31.1336
29.0017
27.063
25.2195
23.422
21.7357
20.2544
18.5547
16.9832
15.8124
15.5022
16.3116
18.5783
22.1757
26.9731
32.4961
37.2399
39.4003
39.257
33.6312
26.5686
15.3261
8.86617
0.113416
-4.32752
-12.4717
-14.9572
-17.6997
-23.4708
-26.5113
-28.6486
-30.0446
-30.7239
-30.7525
-30.1722
-29.0173
-27.1964
-24.8422
-22.0484
-18.5667
-13.9557
-8.53529
-3.2163
1.60436
3.72455
7.79801
10.7482
12.9135
14.376
15.3621
15.7908
15.9602
15.9517
15.8383
15.6591
15.489
15.3207
15.1549
14.9774
14.7782
14.5723
14.3807
14.2265
14.1069
14.0349
14.0009
14.0136
14.0517
14.0975
14.1527
14.1206
14.0535
13.7791
13.4998
13.1157
12.5931
-15.0712
-28.2991
-31.7373
-31.538
-28.7706
-24.7058
-20.3207
-16.3283
-13.0742
-10.8108
-9.42512
-8.81211
-8.65953
-8.77729
-8.98952
-9.65696
-10.4508
-11.3386
-12.2584
-13.14
-13.9246
-14.5674
-15.0369
-15.4155
-15.7405
-16.0844
-16.3941
-16.7991
-17.0368
-16.0606
-12.9454
-11.2234
-9.60472
-10.5278
-15.6527
-18.8355
-20.9076
-21.8646
-22.3299
-22.6103
-22.8411
-23.1862
-23.4091
-23.7139
-24.19
-24.692
-25.2728
-26.0402
-26.5723
-26.9675
-27.1855
-27.0681
-26.3945
-25.3111
-23.5049
-21.2961
-19.2234
-16.8393
-14.6954
-12.6954
-10.6799
-8.45418
-6.00759
-3.45666
-0.894924
1.635
4.13275
6.61159
9.08331
11.5563
14.0352
16.5253
19.0338
21.5688
24.1381
26.7458
29.3857
32.0591
34.7597
37.4833
40.2209
42.9124
44.9555
47.7348
50.6253
53.0898
55.4879
57.7176
59.719
61.4341
62.7931
63.7211
64.1759
64.103
63.4602
62.2562
60.5334
58.4677
56.1591
53.6866
51.1011
48.5072
46.0434
43.7343
41.6044
39.5659
37.435
35.1153
32.5523
29.7533
26.5049
22.5434
18.7012
14.8964
12.0852
10.3404
10.3563
11.5309
13.8214
16.5934
17.2889
15.8722
12.387
7.93093
3.86662
-0.176668
-4.09114
-10.0984
-12.5511
-15.6003
-19.3434
-23.0697
-25.6371
-27.5563
-28.9372
-29.8644
-30.3289
-30.3188
-29.8256
-28.8902
-27.4281
-25.384
-22.9155
-20.0239
-16.3486
-11.7933
-6.77758
-1.62209
3.36405
4.78926
9.08197
11.4478
13.1316
14.3098
15.0107
15.2821
15.3311
15.2009
14.9672
14.7738
14.6115
14.526
14.4616
14.3872
14.31
14.2493
14.2224
14.2238
14.2567
14.311
14.3866
14.4682
14.5336
14.59
14.5462
14.4499
14.1577
13.8115
13.3328
12.7085
-16.4782
-33.2045
-37.1588
-36.8429
-33.5947
-29.0904
-24.3662
-20.174
-16.5455
-14.0342
-12.6004
-11.8821
-11.8
-11.8985
-12.0023
-12.4506
-13.313
-13.9727
-14.6034
-15.1438
-15.5476
-15.789
-15.8721
-15.8168
-15.7068
-15.573
-15.5715
-15.7254
-15.7711
-14.0774
-12.5606
-11.2091
-10.2304
-11.7993
-15.5076
-18.1019
-19.7427
-20.731
-21.4049
-21.9713
-22.5884
-23.1161
-23.7713
-24.5766
-25.3892
-26.3439
-27.4161
-28.6034
-29.7784
-30.8292
-31.6247
-31.9886
-32.0449
-32.0888
-31.4827
-30.4135
-29.3644
-28.2905
-27.35
-26.5101
-25.6059
-24.465
-23.0411
-21.3965
-19.6198
-17.7681
-15.8595
-13.8888
-11.8424
-9.70482
-7.46048
-5.09321
-2.58639
0.0765551
2.91114
5.93017
9.14374
12.5608
16.1873
20.0404
24.1503
28.0903
31.2375
36.1444
40.6067
44.9455
49.1722
53.2135
56.9785
60.3957
63.3785
65.8139
67.6541
68.8799
69.4487
69.314
68.57
67.433
66.0596
64.5311
62.9303
61.3304
59.845
58.5438
57.2606
55.8619
54.0094
51.6748
48.5209
44.6255
39.5839
33.474
26.9878
20.3116
14.4716
10.2171
7.75372
6.60593
6.28122
6.19836
5.37482
4.68043
1.42148
-0.371649
-4.56886
-6.17767
-10.0644
-11.4282
-14.7368
-18.3596
-21.0565
-23.2681
-25.047
-26.4857
-27.5959
-28.3762
-28.8269
-28.9383
-28.6686
-28.019
-26.9364
-25.3268
-23.2392
-20.715
-17.713
-14.0731
-9.74218
-4.7615
0.166429
4.52079
6.02307
10.0218
12.0966
13.4834
14.3256
14.7144
14.7932
14.6551
14.3709
14.1467
13.9294
13.9046
13.9824
14.0586
14.1256
14.2093
14.3235
14.4583
14.6076
14.759
14.9056
15.0346
15.1216
15.1751
15.114
14.9776
14.6478
14.2257
13.6477
12.9083
-16.9404
-36.2679
-41.5266
-41.4057
-37.7273
-32.8525
-28.1602
-24.0941
-20.6484
-18.0806
-16.4698
-15.5795
-15.2009
-15.1969
-15.4247
-15.776
-16.1417
-16.512
-16.8332
-17.0377
-17.0842
-16.8998
-16.7287
-16.3164
-15.8514
-15.4954
-15.2752
-15.1455
-14.6977
-13.8638
-12.67
-11.5801
-11.3767
-13.3679
-15.4428
-17.3777
-18.8187
-19.8802
-20.7209
-21.5479
-22.2603
-23.1031
-24.052
-25.0366
-26.1285
-27.3536
-28.728
-30.2425
-31.8271
-33.347
-34.671
-35.761
-36.5964
-37.3139
-37.6964
-37.7922
-37.8204
-37.8731
-38.0227
-38.2518
-38.4228
-38.3683
-38.0013
-37.3369
-36.4374
-35.3554
-34.113
-32.7076
-31.1232
-29.3382
-27.3282
-25.0678
-22.5315
-19.695
-16.5356
-13.0331
-9.16844
-4.92426
-0.282858
4.8198
10.8377
14.6073
19.8963
27.0593
33.0166
38.9697
44.8212
50.4389
55.6862
60.4879
64.7711
68.4189
71.3696
73.6466
75.2596
76.166
76.5248
76.5697
76.4984
76.4658
76.4478
76.4859
76.6438
76.9359
77.051
76.8476
75.7101
73.722
69.8561
64.8741
57.5253
48.9293
38.4123
28.481
19.1061
13.0603
8.13585
6.38547
5.16886
4.28378
2.17965
0.706151
-1.75596
-2.98694
-5.96063
-7.63559
-10.9804
-12.9731
-15.8811
-18.1742
-20.0837
-21.761
-23.2324
-24.4714
-25.497
-26.3057
-26.8788
-27.1931
-27.2023
-26.8731
-26.1525
-24.9718
-23.3146
-21.1531
-18.5671
-15.5182
-11.8804
-7.74006
-2.75745
1.85609
5.80187
7.10456
10.7563
12.6181
13.6573
14.1815
14.3351
14.2216
13.9535
13.5999
13.28
13.2265
13.445
13.7218
13.9623
14.2104
14.4846
14.7693
15.0495
15.3095
15.5368
15.7189
15.8309
15.8801
15.7981
15.6146
15.2321
14.7255
14.0453
13.1836
-16.7453
-37.336
-43.7846
-44.9287
-43.0237
-39.0526
-34.8469
-30.8146
-27.0514
-23.8809
-21.5602
-20.0052
-18.9233
-18.3249
-18.0855
-18.0635
-18.1554
-18.2891
-18.3295
-18.2389
-17.9834
-17.5647
-16.9676
-16.5779
-15.8613
-15.3543
-14.9697
-14.6614
-14.2172
-13.8077
-12.9877
-12.3687
-12.6332
-13.8884
-15.4332
-16.9232
-18.2473
-19.3711
-20.3827
-21.2243
-22.2272
-23.2359
-24.2284
-25.3493
-26.6137
-28.0291
-29.5992
-31.3349
-33.1793
-34.9979
-36.6731
-38.2052
-39.6414
-40.9897
-42.1415
-43.1172
-44.0321
-44.9754
-46.007
-47.1277
-48.232
-49.1456
-49.7424
-50.0063
-49.9767
-49.6836
-49.1325
-48.3098
-47.1903
-45.7437
-43.9373
-41.7385
-39.1163
-36.0437
-32.4982
-28.462
-23.9204
-18.8618
-13.2767
-7.0998
0.558318
4.91025
11.1348
20.2788
27.072
34.1684
41.1146
47.7411
53.9187
59.5751
64.6597
69.0936
72.8622
76.0258
78.674
80.8537
82.6731
84.3338
86.0581
87.9707
90.085
92.3045
94.8162
97.3371
99.5063
100.919
100.566
98.86
93.6208
87.321
75.9804
63.1591
47.0169
33.8856
22.677
14.1131
9.93949
6.71542
5.30816
2.78203
1.70562
-0.69955
-2.00876
-4.27239
-5.14981
-8.70472
-10.9808
-13.0413
-14.9002
-16.594
-18.1898
-19.6845
-21.0372
-22.2462
-23.2984
-24.1926
-24.9131
-25.4272
-25.7004
-25.6804
-25.3037
-24.5172
-23.2812
-21.5209
-19.2733
-16.602
-13.4094
-9.7729
-5.98375
-0.915851
3.3218
6.94651
8.07286
11.4064
12.9122
13.6312
13.9041
13.8544
13.5857
13.2159
12.8791
12.609
12.816
13.3284
13.7783
14.2131
14.667
15.1189
15.5452
15.9258
16.2439
16.4858
16.6273
16.6737
16.5692
16.3352
15.8916
15.2927
14.5082
13.5216
-15.3719
-36.6801
-43.8282
-45.9622
-46.1365
-44.8429
-42.3503
-39.433
-36.0976
-32.7386
-29.6672
-27.1566
-25.104
-23.313
-21.9299
-20.8554
-20.015
-19.3122
-18.6911
-18.0904
-17.4506
-16.8259
-16.2323
-15.6378
-15.2471
-14.6719
-14.3204
-14.1128
-13.9203
-13.8269
-13.5029
-13.4291
-13.9381
-14.6691
-15.7015
-16.8623
-18.0428
-19.2991
-20.2338
-21.2757
-22.4324
-23.5181
-24.7765
-26.0553
-27.3209
-28.7904
-30.4167
-32.1886
-34.0732
-35.9608
-37.7958
-39.5754
-41.3656
-43.1679
-44.8977
-46.5211
-48.0774
-49.6247
-51.2237
-52.9164
-54.6537
-56.2817
-57.6394
-58.6637
-59.3811
-59.7909
-59.8627
-59.5581
-58.8373
-57.6614
-55.9941
-53.8025
-51.0587
-47.7422
-43.8414
-39.3525
-34.2795
-28.6341
-22.434
-15.7071
-6.88813
-2.1885
4.99003
13.7297
21.394
28.982
36.3442
43.3864
50.0022
56.1406
61.78
66.9226
71.5321
75.6807
79.5077
83.1035
86.5928
90.2729
94.2658
98.7283
103.399
108.15
113.753
118.899
123.761
126.146
127.806
125.338
117.206
108.013
89.0662
71.2963
49.4963
28.5796
18.1822
12.7975
9.0032
6.77991
4.81251
3.06736
1.57897
-0.306588
-1.73342
-3.31079
-6.30156
-8.14667
-9.98416
-11.7118
-13.3336
-14.868
-16.3134
-17.6956
-18.9977
-20.1914
-21.2697
-22.2363
-23.0787
-23.7581
-24.2536
-24.5017
-24.4342
-24.0025
-23.1546
-21.7998
-19.9169
-17.5604
-14.7182
-11.4044
-7.78586
-4.05325
0.828467
4.7269
8.09296
9.05721
11.8626
12.9891
13.4456
13.507
13.2866
12.8987
12.519
12.2728
12.2248
12.8639
13.555
14.1945
14.8427
15.4758
16.0605
16.5721
16.9898
17.2985
17.475
17.5226
17.3965
17.1119
16.6049
15.9104
15.0189
13.9081
-13.9065
-33.4759
-41.0397
-44.6562
-46.5316
-47.4206
-47.6964
-47.227
-45.948
-44.0763
-41.7898
-39.3442
-36.9866
-34.6258
-32.2074
-29.8723
-27.6744
-25.5261
-23.3776
-21.2672
-19.1185
-17.3971
-16.0487
-14.7384
-14.0214
-13.3571
-13.0505
-13.1118
-13.2074
-13.5706
-13.9339
-14.4818
-15.5356
-16.2293
-17.0481
-18.004
-19.0122
-19.9193
-20.9718
-22.1051
-23.3272
-24.4448
-25.6702
-26.9912
-28.681
-30.2764
-31.8343
-33.3307
-34.8943
-36.5656
-38.2915
-40.0489
-41.8833
-43.7969
-45.7291
-47.6167
-49.4425
-51.228
-53.0246
-54.9139
-56.946
-58.9808
-60.8557
-62.4488
-63.7368
-64.6853
-65.233
-65.3229
-64.9078
-63.948
-62.4115
-60.2758
-57.5224
-54.142
-50.1383
-45.5247
-40.3256
-34.5738
-28.3078
-21.5542
-12.8423
-7.7015
-1.39584
8.14883
15.3633
22.8247
30.175
37.3273
44.2016
50.7479
56.9984
62.9406
68.5633
73.9298
79.1885
84.4373
89.8375
96.1185
103.019
110.687
118.024
127.743
137.638
145.713
153.164
155.886
157.222
149.258
136.22
121.463
91.5327
52.3132
30.1551
19.802
13.7093
10.04
7.9331
6.53695
4.88321
3.69918
1.03432
0.50843
-1.72661
-3.80113
-5.56216
-7.23753
-8.85362
-10.4346
-11.9213
-13.3003
-14.6227
-15.9208
-17.1652
-18.3279
-19.4115
-20.4359
-21.3811
-22.2021
-22.8862
-23.3637
-23.5607
-23.4454
-22.9583
-21.9845
-20.4664
-18.4438
-15.9105
-12.8669
-9.43536
-5.84282
-2.15608
2.61065
6.13465
8.92743
9.83147
12.1024
12.8989
13.1212
13.008
12.6455
12.2182
11.9604
11.8951
12.3742
13.3006
14.1495
14.9997
15.8236
16.5759
17.2265
17.7509
18.1324
18.349
18.4021
18.2569
17.9233
17.3535
16.5649
15.5644
14.3304
-11.8985
-29.0965
-36.4234
-40.6459
-43.9354
-46.7343
-49.2941
-51.3793
-52.8127
-53.6323
-53.7724
-53.3498
-52.4519
-51.2176
-49.5737
-47.5794
-45.2137
-42.5331
-39.5679
-36.3254
-31.6573
-27.973
-25.5458
-21.3592
-18.3617
-15.7284
-13.9421
-12.9025
-12.5452
-12.8525
-13.612
-14.5633
-15.335
-16.3173
-17.4379
-18.6996
-20.1361
-21.0819
-22.2705
-23.5586
-24.8028
-26.2349
-27.5309
-28.9072
-30.2954
-31.7958
-33.2633
-34.9777
-36.265
-37.1706
-38.5326
-39.9077
-41.3431
-42.8568
-44.4403
-46.0157
-47.5543
-49.054
-50.5335
-52.0764
-53.757
-55.9227
-57.9838
-59.727
-61.2191
-62.399
-63.1927
-63.5433
-63.4035
-62.735
-61.51
-59.7085
-57.3189
-54.336
-50.7662
-46.6237
-41.9352
-36.7348
-31.0586
-24.9499
-17.9272
-10.3147
-6.0733
1.70836
9.38672
16.7224
23.9611
31.1623
38.317
45.3212
52.2991
59.2526
66.1205
72.9665
79.9889
87.0008
96.3559
106.471
117.08
128.529
140.026
152.762
164.689
174.965
182.132
182.055
178.558
158.614
143.057
86.0228
49.6192
28.9459
18.3438
13.2062
11.0598
8.91783
7.47202
6.18854
5.04442
3.48358
1.649
0.333744
-1.71628
-3.3289
-4.85465
-6.44344
-7.86134
-9.29725
-10.6467
-11.8836
-13.0925
-14.316
-15.5063
-16.6307
-17.7101
-18.7814
-19.8134
-20.7573
-21.5965
-22.2616
-22.676
-22.8342
-22.6818
-22.0739
-20.9164
-19.2356
-17.0207
-14.2446
-11.0245
-7.55869
-3.94991
-0.211519
4.33264
7.4507
9.50374
10.3527
12.1982
12.666
12.697
12.4211
11.9689
11.6654
11.6423
11.9065
13.0112
14.079
15.1345
16.154
17.0787
17.8729
18.5087
18.9674
19.2284
19.2915
19.1307
18.7515
18.1207
17.2434
16.134
14.7795
-10.0369
-24.3391
-30.9268
-35.412
-39.4346
-43.4861
-47.4399
-51.2882
-55.034
-58.3461
-61.1494
-63.4066
-65.1121
-66.2188
-66.7486
-66.6679
-65.846
-64.2916
-61.9494
-58.7621
-54.6949
-50.2261
-45.3506
-38.8996
-34.4314
-28.405
-23.4241
-18.9658
-15.4143
-12.8654
-11.3879
-10.8697
-11.0092
-11.8025
-13.1528
-14.935
-17.0043
-19.0271
-21.0925
-23.4615
-25.4868
-27.6293
-28.5969
-30.1833
-31.6059
-33.0692
-34.3164
-35.4565
-36.477
-37.4854
-38.5856
-39.653
-40.7039
-41.8024
-43.0461
-44.208
-45.3576
-46.5302
-47.6386
-48.7879
-49.6695
-49.8587
-50.7427
-51.9334
-53.0686
-54.0637
-54.8313
-55.3027
-55.4244
-55.1492
-54.4389
-53.2591
-51.5901
-49.4157
-46.7245
-43.5136
-39.7889
-35.5716
-30.8746
-25.7342
-20.0569
-12.4255
-8.47737
-2.82175
5.18177
12.2494
19.3255
26.592
34.0838
42.277
50.7262
59.0541
67.5108
76.2197
85.4612
95.265
107.28
120.442
134.256
149.203
163.634
177.901
190.442
200.36
200.679
197.725
175.673
145.763
82.814
45.1312
25.8345
16.3159
12.2903
10.2025
8.48951
8.76755
7.62817
6.20546
4.93981
3.45721
1.84415
0.312423
-1.33061
-3.56474
-3.81509
-5.9213
-6.9111
-8.25894
-9.48175
-10.6012
-11.7223
-12.8741
-14.0006
-15.0513
-16.1073
-17.2078
-18.3002
-19.3444
-20.3066
-21.1205
-21.707
-22.0965
-22.2584
-22.0108
-21.2229
-19.8882
-17.998
-15.5378
-12.5755
-9.23113
-5.6525
-1.99814
1.70696
5.80737
8.54216
9.5106
10.6863
12.1164
12.3326
12.1833
11.7542
11.396
11.3893
11.6612
12.7014
13.9982
15.253
16.4643
17.5608
18.4992
19.2483
19.7869
20.0957
20.1732
20.0008
19.5812
18.8928
17.9346
16.721
15.249
-7.93028
-19.4408
-25.2851
-29.6897
-33.8961
-38.2717
-43.0281
-48.0792
-52.9952
-58.2679
-63.132
-67.6203
-71.6754
-75.1831
-78.2029
-80.4406
-81.7872
-82.2278
-81.6646
-80.0047
-77.23
-73.4322
-68.7165
-62.9473
-56.5945
-48.9658
-42.3413
-34.8047
-28.0002
-21.6095
-16.2313
-12.0371
-9.12935
-7.55928
-7.26594
-8.09534
-9.81918
-12.1111
-14.7472
-17.642
-20.4903
-23.261
-26.1853
-28.5696
-30.5174
-32.3806
-33.1227
-34.171
-34.9695
-35.6909
-36.3807
-37.0481
-37.6853
-38.3911
-38.5532
-39.0778
-39.7851
-40.6544
-41.4691
-42.3122
-42.9285
-42.914
-43.2104
-43.8984
-44.6639
-45.4184
-46.0926
-46.6437
-46.9889
-47.0562
-46.8094
-46.1919
-45.1762
-43.7286
-41.8225
-39.4283
-36.5402
-33.1728
-29.2952
-24.9637
-20.1451
-14.1205
-8.43092
-4.68582
3.19534
10.0538
17.2432
24.757
32.7526
41.6214
50.9679
60.518
70.616
81.2783
92.9441
105.586
119.999
135.651
151.881
168.442
184.434
198.698
209.43
212.478
202.091
190.97
139.457
76.7839
40.773
22.4438
13.888
10.7058
9.14419
8.67255
8.46424
7.36623
7.19767
6.14239
4.82661
3.40706
1.91678
0.35126
-1.06776
-2.4108
-4.15245
-5.53486
-5.99836
-7.35508
-8.44304
-9.46958
-10.5148
-11.5408
-12.5875
-13.4708
-14.5271
-15.6398
-16.7334
-17.8151
-18.8489
-19.7911
-20.5014
-21.0761
-21.5764
-21.7358
-21.339
-20.3468
-18.8042
-16.6815
-13.9957
-10.8337
-7.33502
-3.68934
-0.10089
3.46146
7.0793
9.16291
9.95467
10.8837
11.911
11.9052
11.5478
11.1484
11.1275
11.438
12.3211
13.8864
15.354
16.7528
18.0156
19.0956
19.9573
20.577
20.936
21.0321
20.8528
20.3995
19.6591
18.6285
17.3204
15.7372
-6.00924
-14.5004
-19.9164
-24.1168
-28.1983
-32.5042
-37.3087
-42.6434
-48.5601
-54.7572
-60.7488
-66.5952
-72.1579
-77.4462
-82.3146
-86.3549
-89.5759
-91.8789
-93.1322
-93.2368
-92.1564
-89.9146
-86.5637
-82.1017
-76.559
-69.9923
-62.819
-54.6024
-47.087
-38.4411
-30.3881
-23.0173
-16.669
-11.6565
-8.11581
-6.09211
-5.48881
-6.07426
-7.57345
-9.74586
-12.3102
-15.0562
-17.9773
-20.7402
-23.1914
-25.3133
-27.2555
-28.5885
-29.4332
-30.0165
-30.2821
-30.6238
-30.826
-30.9336
-31.2929
-31.5059
-31.775
-32.2616
-32.5872
-32.0741
-31.9849
-31.9863
-32.2741
-32.8203
-33.4825
-34.2152
-35.0382
-35.8405
-36.5615
-37.13
-37.502
-37.5559
-37.2973
-36.6584
-35.6113
-34.0855
-32.0776
-29.6041
-26.5545
-23.0463
-19.0372
-12.6644
-9.39175
-4.91349
2.45515
9.02256
16.2705
24.044
32.5323
41.7956
51.8028
62.4472
74.0975
86.5718
100.468
115.359
132.16
149.187
166.564
183.832
199.266
210.615
214.717
202.004
188.459
117.376
62.8514
32.8254
17.8728
11.1997
8.91048
8.03852
8.02614
7.99213
8.06416
7.74902
6.79139
5.9736
4.76191
3.37853
1.96215
0.525054
-0.808358
-2.12977
-3.14623
-4.59191
-5.90216
-6.49229
-7.36966
-8.45203
-9.41722
-10.2355
-11.2064
-11.799
-12.9352
-13.9748
-14.8909
-15.8253
-16.7478
-17.7992
-18.6124
-19.3879
-20.3339
-21.1286
-21.2746
-20.6731
-19.4661
-17.6536
-15.2532
-12.3178
-8.95971
-5.36274
-1.75026
1.70085
5.04312
8.04571
9.61385
10.2219
10.9322
11.606
11.3146
10.9129
10.8598
11.2044
12.1102
13.7995
15.4425
17.0154
18.4362
19.6526
20.6246
21.3253
21.7365
21.8555
21.6749
21.1959
20.4116
19.3188
17.9284
16.2446
-4.2019
-9.76088
-14.8789
-18.8805
-22.7743
-26.5499
-30.9892
-35.9817
-42.716
-48.9976
-55.032
-61.1521
-67.2644
-73.2462
-78.8844
-83.9815
-88.4015
-92.0274
-94.7243
-96.3469
-96.795
-96.2334
-94.6865
-92.2131
-88.5753
-83.859
-78.2536
-71.5524
-63.6779
-56.9413
-47.7012
-39.2286
-31.0628
-23.7482
-17.4501
-12.5092
-9.02023
-6.90207
-5.99456
-6.08831
-6.95613
-8.36718
-10.1853
-12.1769
-14.1405
-15.9137
-17.4908
-18.6542
-19.362
-19.7138
-19.7915
-19.6297
-19.3696
-18.8598
-18.7062
-18.4587
-18.3209
-18.4401
-18.3492
-18.4648
-18.2957
-18.2717
-18.5164
-18.3916
-18.9242
-19.7811
-20.9612
-22.1553
-23.3877
-24.6258
-25.8192
-26.6807
-27.3456
-27.7056
-27.6966
-27.266
-26.3048
-24.9182
-22.8416
-20.3509
-17.1164
-12.0507
-9.30508
-4.62195
1.5456
7.99871
15.227
23.1466
32.009
41.6875
52.3693
64.0491
77.0693
91.1944
106.936
123.543
141.534
159.153
177.018
193.021
204.962
209.29
195.549
174.01
102.726
54.5697
27.2056
14.2236
8.73019
6.84543
6.78438
6.93489
7.26687
7.72053
7.61852
7.52312
6.74073
5.84761
4.68562
3.34683
1.99253
0.657798
-0.582681
-1.68167
-2.96846
-3.46394
-5.28403
-5.91457
-6.28622
-7.46407
-8.38014
-8.86322
-9.79907
-10.3669
-10.3933
-10.7195
-10.9941
-11.3244
-11.7062
-12.164
-13.7648
-15.5073
-17.3032
-19.3318
-20.8226
-21.1427
-20.3843
-18.7538
-16.4818
-13.6957
-10.486
-6.97871
-3.37251
0.134424
3.36433
6.35037
8.73436
9.88386
10.3343
10.9637
10.998
10.6751
10.5891
10.9526
11.8903
13.7212
15.5154
17.2455
18.8141
20.161
21.2401
22.0211
22.4862
22.6327
22.4573
21.962
21.1442
20.0018
18.5434
16.7733
-2.81678
-5.76359
-9.21866
-13.0033
-17.1468
-21.9549
-25.9989
-30.279
-34.7004
-39.723
-44.9755
-50.5493
-56.1989
-62.0358
-67.8198
-73.3312
-78.3649
-82.8771
-86.736
-89.6672
-91.3908
-92.5454
-92.9258
-92.3881
-91.2081
-89.1516
-86.1599
-82.0052
-76.406
-69.2521
-63.3637
-54.8255
-46.465
-38.5759
-30.7977
-24.0285
-18.4229
-13.9588
-10.6581
-8.4007
-7.06781
-6.47483
-6.47508
-6.88201
-7.50087
-8.14465
-8.70872
-9.02823
-9.01886
-8.70383
-8.14953
-7.36557
-6.43474
-5.32865
-4.31014
-3.35101
-2.60801
-1.28782
-0.781377
-0.212594
0.130711
0.0976273
-0.394781
-1.25905
-2.21064
-3.27072
-4.63222
-6.22277
-8.04303
-9.89681
-12.0461
-14.0667
-15.8929
-17.4562
-18.6783
-19.5659
-19.8288
-19.7054
-18.79
-17.51
-14.8095
-12.6684
-9.08855
-4.99974
0.26405
6.31237
13.41
21.368
30.51
40.6882
52.0392
64.8413
79.0002
94.7459
111.328
129.12
147.255
164.933
181.317
192.02
198.469
184.017
154.235
87.0531
44.7986
21.3807
10.2943
6.25643
4.85198
5.22427
6.15001
6.84379
7.09149
7.37414
7.54915
7.19912
6.60524
5.72838
4.57146
3.27
1.99337
0.778603
-0.397358
-1.32896
-2.55031
-3.02975
-4.5758
-5.08671
-5.61433
-6.46728
-7.68981
-7.02747
-8.47649
-8.01049
-8.71209
-8.76567
-8.2688
-7.9455
-7.51966
-7.07225
-7.19134
-8.11496
-9.8913
-12.9928
-16.9689
-20.0988
-21.3486
-20.5135
-18.2849
-15.3511
-12.0677
-8.56304
-4.95607
-1.41004
1.91659
4.80746
7.37371
9.2235
9.98238
10.2817
10.5976
10.4305
10.3211
10.6785
11.6623
13.6298
15.5598
17.4325
19.1397
20.6112
21.7945
22.6549
23.1758
23.355
23.1926
22.6917
21.8532
20.6761
19.1664
17.3272
-1.15576
-1.51816
-4.56855
-7.80015
-10.9832
-13.6191
-16.4362
-19.3243
-22.1635
-25.3173
-29.1423
-33.6126
-38.7221
-44.3485
-50.0926
-55.7438
-61.1215
-66.0061
-70.4106
-74.2268
-78.3398
-81.6609
-84.3072
-86.3168
-87.6788
-88.2759
-87.9459
-86.4599
-83.5705
-79.2089
-73.2012
-68.4944
-59.4879
-52.4856
-43.9631
-36.4726
-29.7354
-23.6393
-18.5352
-14.3167
-11.0038
-8.43611
-6.54554
-5.19861
-4.20055
-3.3947
-2.64441
-1.80085
-0.762486
0.489002
1.92631
3.54093
5.29736
7.18092
9.07264
10.8878
12.5061
14.2575
15.7062
16.8997
17.7807
17.9621
17.9667
17.3838
16.1399
14.7389
12.3525
10.2723
7.8411
4.73418
1.88161
-1.28751
-4.34659
-7.22277
-9.773
-12.2458
-13.6207
-14.9654
-15.4636
-15.3704
-14.648
-12.7938
-10.3457
-6.8262
-2.22137
3.36059
10.3141
18.2874
27.6946
38.49
50.4196
64.5079
79.2131
96.2815
112.706
131.829
148.297
165.323
176.18
178.548
170.653
130.922
72.7526
37.1154
17.4913
7.7036
3.87089
3.21478
3.42945
4.24409
5.67864
6.80029
6.87774
7.36776
7.3099
6.96499
6.45177
5.57388
4.42217
3.17218
1.98834
0.88097
-0.211071
-1.07129
-2.12705
-2.66617
-3.91335
-5.0848
-4.67825
-5.35639
-6.56696
-7.31424
-7.48312
-6.95414
-7.02421
-5.17812
-2.66961
-1.74042
0.0726819
1.5748
1.32379
-0.610015
-0.627977
-2.09891
-7.55038
-12.7025
-17.7499
-20.5278
-20.1825
-17.6499
-14.1523
-10.3825
-6.60778
-2.95857
0.466213
3.511
5.9397
8.16547
9.45193
9.69655
9.99709
10.1668
10.0539
10.3807
11.3991
13.5042
15.5624
17.5673
19.4046
20.9944
22.2786
23.2188
23.7978
24.0152
23.8753
23.3814
22.5363
21.3424
19.8014
17.9112
-0.469359
0.358067
4.23912
3.81852
1.38027
-0.803153
-2.66837
-4.62235
-6.67073
-9.40378
-12.8806
-16.5481
-21.2494
-26.0349
-31.1741
-36.5237
-41.8958
-47.203
-52.4046
-57.4174
-62.096
-66.8428
-71.4551
-75.8236
-79.7303
-83.0537
-85.4428
-86.5862
-86.2929
-84.4081
-80.8007
-78.9545
-69.6833
-64.6784
-55.155
-47.9298
-40.6127
-33.2256
-26.8845
-21.1406
-16.2465
-11.9315
-8.35931
-5.44438
-2.89443
-0.672035
1.37101
3.35937
5.41009
7.56486
9.83358
12.2039
14.6797
17.2446
19.8371
22.3669
24.7368
27.0586
29.1962
30.997
32.3979
33.0088
33.1257
32.7116
31.4278
30.0712
26.8148
24.7504
21.95
17.3532
13.7159
9.5849
5.37227
1.21625
-2.62087
-7.0091
-8.69412
-12.3034
-14.3927
-15.3091
-15.6956
-15.0009
-13.4191
-10.6195
-6.57481
-1.34678
5.51782
13.5615
23.3048
34.79
47.1066
62.311
77.0804
95.3525
110.996
130.652
143.01
158.358
156.584
151.743
100.139
55.9131
27.363
12.3971
4.24992
1.50141
0.909336
1.69292
2.74113
4.32162
5.60936
6.0492
6.74102
7.21257
7.00549
6.76255
6.30056
5.39292
4.2556
3.07667
1.98531
0.976218
-0.0536816
-0.842251
-1.8083
-2.4256
-3.49363
-4.84811
-3.97481
-7.39426
-5.99734
-7.22273
-6.65852
-5.16087
-4.51363
1.15345
5.54688
11.0609
18.0208
21.8854
20.709
20.5693
12.9394
10.0535
1.38202
-2.43958
-7.81872
-14.2162
-18.4699
-18.9204
-16.4635
-12.6464
-8.54486
-4.62864
-1.02202
2.19125
4.85388
6.798
8.439
9.37657
9.66646
9.82188
9.76094
10.051
11.0901
13.3284
15.5124
17.6432
19.6038
21.3065
22.6888
23.708
24.3456
24.6071
24.5016
24.0309
23.1933
22.001
20.4514
18.5307
-1.48332
7.21773
-3.76147
-0.473659
0.255454
-0.601014
-1.99797
-3.8959
-5.82741
-8.15483
-10.4385
-12.8957
-14.9237
-17.6573
-20.2648
-23.1436
-26.5561
-30.6129
-35.195
-40.3873
-45.9754
-51.968
-58.203
-64.571
-70.6898
-76.5259
-81.3448
-84.9347
-87.0181
-87.5938
-86.4962
-83.7204
-78.8599
-74.4308
-64.5388
-59.2653
-50.3651
-41.1422
-34.6746
-27.573
-21.3776
-15.3218
-10.2779
-6.0607
-1.96781
1.57229
4.80999
7.81062
10.7381
13.6413
16.5608
19.4599
22.4094
25.404
28.3898
31.3089
34.083
36.7387
39.2304
41.3779
43.0742
44.0165
44.3009
43.9197
42.7334
41.1973
38.255
35.1981
31.5206
26.7774
22.0622
16.9748
11.6961
6.36021
1.17782
-3.99402
-8.26735
-12.2952
-15.637
-18.0398
-19.5936
-19.9837
-19.232
-17.0741
-13.4713
-8.50824
-1.61308
6.63073
16.8355
28.8838
41.6376
57.7035
72.6571
91.1006
105.406
123.208
130.608
137.62
119.895
74.6925
40.5794
19.1855
6.669
1.57908
-0.77089
-0.889561
0.242168
1.31798
2.8424
4.47518
5.06493
5.84121
6.80638
6.79677
6.65237
6.57412
6.12453
5.17069
4.07516
2.98792
1.98136
1.0688
0.0519929
-0.637904
-1.56424
-2.33969
-2.94572
-2.48191
-1.78416
-8.6814
-6.41791
-7.88836
-5.61137
-1.28373
2.68718
17.764
27.4061
40.2038
58.5526
61.7893
61.4704
63.3659
53.4296
41.4507
21.9626
8.45703
4.94938
-1.34507
-10.0849
-15.8178
-17.2624
-15.1291
-11.1603
-6.84852
-2.85406
0.652433
3.56747
5.74407
7.20595
8.62721
9.33033
9.47758
9.4508
9.66246
10.7021
13.0738
15.3974
17.6621
19.7509
21.5707
23.0573
24.1656
24.8695
25.1796
25.1214
24.6976
23.8861
22.7165
21.1686
19.2107
-0.569374
0.411106
-0.12221
-0.306069
-0.811366
-0.860291
-1.75284
-2.02284
-2.26899
-1.40641
-6.31287
-6.42098
-3.85256
-8.47248
-11.2652
-13.2251
-15.7629
-19.1413
-23.2078
-28.0517
-33.672
-40.0711
-47.0914
-54.6455
-62.1916
-70.0489
-76.1471
-81.9394
-85.6111
-89.4153
-90.9113
-90.2321
-87.519
-84.1236
-76.9483
-69.5269
-61.7916
-49.2052
-43.5381
-33.617
-26.0923
-17.6752
-11.5162
-6.22514
-0.117205
4.73263
9.17224
13.0462
16.7344
20.2408
23.6083
26.7371
29.8969
33.0308
36.0417
38.9224
41.6138
44.1393
46.4915
48.5019
50.0168
50.8439
50.9754
50.3697
48.8701
46.7738
43.6344
39.9054
35.5234
30.4403
24.8335
18.812
12.5076
6.05629
-0.362584
-6.60901
-12.4064
-17.6126
-22.1056
-25.5489
-28.1272
-29.2921
-29.1576
-27.323
-23.969
-18.9744
-11.7622
-3.20699
7.8095
20.1512
33.8969
50.1604
65.1392
81.5726
94.3278
106.428
106.811
72.9737
46.1342
23.3258
10.6451
2.25782
-1.64621
-2.37643
-2.56997
-2.45618
-0.414801
1.36744
3.34033
3.95501
4.94475
6.03568
6.34999
6.30984
6.35297
6.41748
5.88394
4.88649
3.89499
2.92119
1.96178
1.1483
0.0406716
-0.530297
-1.06603
-2.53222
-9.91734
-7.25179
5.71963
-13.1986
-9.19973
-9.03712
-1.85921
8.35559
21.7579
52.7094
67.6611
97.2002
126.99
133.374
138.526
141.665
131.639
110.373
76.4162
49.7909
24.9491
8.41449
4.08058
-4.73627
-12.3502
-14.854
-13.2742
-9.51961
-5.27402
-1.34268
1.96775
4.43315
6.11558
7.5383
8.63034
8.83609
9.08021
9.35886
10.2506
12.6789
15.2086
17.6229
19.844
21.7814
23.3721
24.5769
25.376
25.7133
25.7095
25.3356
24.5399
23.4198
21.9169
20.0425
0.374678
0.564918
0.529096
-3.30024
2.31571
-3.45582
3.43138
-17.8662
17.2726
-1.25872
-2.68769
-0.797816
-0.947867
-1.35925
-1.55158
-2.27117
-3.065
-4.16294
-5.71552
-7.79893
-10.557
-14.1151
-18.8115
-24.464
-31.6883
-39.8188
-50.5161
-60.2079
-73.2315
-83.7346
-90.5597
-95.6649
-96.7408
-94.5457
-88.8407
-80.3542
-72.17
-60.3833
-50.9615
-39.9828
-31.1099
-17.7706
-12.6371
-4.87945
3.50261
9.6214
15.4512
19.8167
24.1449
28.084
31.5699
35.4574
38.7258
41.7003
44.3385
46.6602
48.6652
50.4098
51.9893
53.222
53.8577
53.835
53.1939
51.7428
49.4693
46.4491
42.5218
37.8916
32.5646
26.5417
19.9538
12.9209
5.57338
-1.9524
-9.47754
-16.7837
-23.656
-29.8193
-35.1971
-39.2894
-42.3841
-43.7229
-43.6943
-41.6721
-38.1529
-32.7511
-24.8507
-15.7565
-3.39993
8.63707
24.1796
39.1677
53.278
65.5388
75.7452
56.111
39.7471
22.6054
10.7358
2.85697
-1.745
-3.721
-4.29652
-4.31966
-3.55115
-1.43718
0.0548414
2.20505
2.84937
3.8117
5.16806
5.66748
5.85477
5.88722
6.19076
6.25015
5.54623
4.56849
3.78053
2.90641
1.90233
1.23785
-0.11995
-0.701027
-5.09908
1.7736
-2.19912
-20.0555
15.6512
-19.1343
-15.891
-10.1358
7.16745
27.9125
58.0146
99.4621
120.219
169.988
195.221
199.847
219.385
226.089
227.788
216.079
178.589
130.474
76.9265
42.7879
16.0053
8.36079
5.6773
-10.0933
-12.4939
-11.0313
-7.61492
-3.61855
0.075343
2.90283
4.87456
6.43128
7.634
8.35987
8.55101
8.92605
9.8472
12.3232
14.9619
17.5197
19.8667
21.9131
23.5984
24.8847
25.7352
26.1173
26.1769
25.8758
25.2138
24.1904
22.7518
20.9147
0.172991
0.238493
-0.0619736
-0.0393393
-0.218432
0.372996
-0.517068
-0.0205938
0.555893
-0.0487517
-0.270529
-0.339712
1.24938
-5.95131
4.3411
0.180086
-0.562539
-0.322435
-0.684412
-0.736223
-1.12338
-1.65746
-2.54803
-3.5389
-5.20152
-7.26213
-10.3901
-13.5692
-20.6682
-26.3273
-34.6949
-44.8967
-54.8064
-63.8496
-70.3822
-72.9954
-71.9125
-64.9132
-56.201
-43.9006
-32.8207
-19.4402
-8.53161
0.320488
10.7424
17.7882
27.6104
31.1539
36.9436
41.3183
45.1141
48.1516
50.6361
52.7308
54.7472
55.9936
56.7946
56.9305
57.127
56.9116
55.9885
54.0282
51.7884
48.7347
44.8832
40.2715
34.7242
28.6016
21.8623
14.4462
6.52626
-1.69048
-10.1382
-18.702
-27.1874
-35.3349
-42.9034
-49.5306
-55.2805
-59.227
-62.3847
-63.1924
-62.6163
-59.8
-55.6304
-48.9421
-39.6853
-29.4804
-16.0005
-4.09452
13.2881
23.9512
36.5186
30.3143
23.8113
14.8682
7.26133
1.39917
-2.17622
-4.71711
-5.05237
-6.06225
-5.60076
-4.59894
-3.15552
-1.38102
1.12996
1.79808
2.67566
4.20433
4.75609
5.22528
5.3775
5.61521
6.15521
5.93919
5.06395
4.29441
3.6426
2.70132
1.72548
1.6637
-0.57774
0.599477
-10.6012
-0.262144
19.8913
-46.7414
2.53302
-14.5907
-24.2893
-7.89237
22.7262
56.3385
96.3151
131.842
158.94
199.434
210.612
225.876
252.421
267.848
277.739
273.832
272.132
248.255
179.335
110.238
55.714
22.3269
10.314
5.56738
-4.02419
-9.04797
-8.62122
-5.61402
-1.94226
1.17031
3.43245
5.22839
6.53395
7.58889
8.0981
8.38683
9.32283
11.8232
14.6724
17.3673
19.8187
21.9549
23.7184
25.0652
25.9811
26.4941
26.641
26.4328
25.8662
24.9441
23.5854
21.8232
0.0502042
0.0671925
0.0336154
-0.0115891
0.00236338
0.0443149
-0.0202608
0.0371569
0.0599867
0.0288929
-0.0322016
0.248517
-0.266254
-0.0415372
0.219301
0.000340893
-0.0736579
-0.286533
0.53506
-1.38694
0.660412
-0.0612307
-0.202784
-0.537914
-0.608407
-0.838824
-1.17192
-1.71777
-2.52591
-3.24577
-5.04603
-7.39511
-10.5255
-14.2103
-18.8764
-23.3475
-28.2004
-30.7362
-31.7149
-28.614
-22.9807
-13.8649
-2.26842
9.38777
21.8099
31.8136
42.2957
49.4949
55.7912
60.4517
64.0581
67.3082
68.632
68.5662
70.3753
69.5571
68.8131
65.2156
63.3079
60.8214
58.0079
52.5963
47.7845
42.4195
35.9369
29.4265
21.2431
12.8165
4.17231
-5.19243
-14.8902
-24.5502
-34.1993
-43.7822
-53.048
-61.706
-69.4214
-75.8417
-81.0837
-83.9239
-85.8867
-85.1979
-83.1207
-78.7619
-72.7504
-63.3855
-51.7961
-40.733
-27.6706
-12.2649
-1.77212
2.41597
4.53597
3.11505
0.68498
-2.614
-4.51779
-6.07868
-6.60712
-7.43597
-7.17766
-6.79705
-5.87803
-4.36667
-2.19972
0.1859
0.750201
1.82022
3.00564
3.76768
4.38672
4.82646
4.99541
5.55143
6.10439
5.34587
4.72129
4.08028
3.3954
2.53383
1.64985
0.793859
-1.95612
7.25777
-19.3952
-16.7314
63.7405
-79.7279
-38.2056
-23.8632
-24.4241
2.04456
39.1915
75.5817
108.007
129.46
162.995
182.676
188.331
209.705
231.597
253.585
272.175
287.45
296.506
289.712
285.555
225.253
138.157
67.0011
35.2499
14.351
9.52147
-0.218654
-6.67682
-6.14519
-3.51194
-0.533193
1.85488
3.88892
5.41306
6.4356
7.40787
7.7961
8.74007
11.0959
14.232
17.0911
19.6722
21.9177
23.7694
25.1912
26.1848
26.786
27.0252
26.9253
26.4792
25.6887
24.4398
22.7851
0.0283291
0.0424109
0.0262374
0.00601556
0.00888771
0.0170768
0.0120335
0.0161067
0.0196404
0.0140932
0.0181065
0.0382391
-0.0163583
0.0242729
0.0320764
0.00813825
-0.0271543
0.115344
-0.119063
-0.0355887
0.00524435
-0.385298
0.901271
-0.401577
-0.470664
-0.0158165
-0.157731
-0.30034
-0.405274
-0.509305
-0.745852
-1.07309
-1.51926
-2.09814
-2.8997
-3.80688
-4.98071
-6.07864
-7.06842
-7.45209
-6.72074
-4.83282
-0.175874
5.84562
15.0479
24.7652
36.4376
47.4967
58.6113
67.9413
75.0836
80.8984
83.7254
85.6293
85.4703
82.3947
83.4069
73.2118
62.7922
73.8411
53.5181
50.3855
40.5776
34.345
21.2344
15.5423
3.83343
-8.21707
-18.6961
-30.245
-41.8783
-52.6488
-62.9991
-73.0276
-82.2314
-90.3814
-96.782
-101.69
-104.381
-104.785
-102.569
-104.458
-98.7724
-90.403
-79.4106
-65.0657
-52.3867
-34.9264
-23.151
-15.1306
-9.95638
-7.158
-6.90413
-7.20382
-7.7363
-7.76329
-7.99827
-8.0401
-8.61868
-8.27296
-7.39878
-6.43753
-5.08972
-3.00453
-0.671832
-0.0964729
0.650991
2.02444
2.81267
3.43509
4.09052
4.4633
4.80047
5.65508
5.71807
5.01328
4.61618
3.78867
2.96542
2.82921
0.196988
-4.56162
-11.5598
16.9334
-13.6759
-68.2661
91.5698
-96.6513
-79.2246
-54.9486
-24.5932
10.9254
44.6609
72.0924
92.6611
109.527
130.233
138.953
151.109
169.697
191.273
214.561
238.164
261.929
281.378
295.837
299.586
287.661
245.664
150.153
75.2693
35.5323
16.5915
11.703
6.72103
-6.04631
-3.86258
-1.70682
0.386117
2.48093
4.24762
5.16053
6.4097
7.42279
8.0195
10.0414
13.8586
16.7476
19.4102
21.7567
23.6992
25.2059
26.2861
26.9778
27.3181
27.3436
27.0387
26.4191
25.3182
23.8211
0.0187111
0.0258196
0.0189854
0.0097463
0.00808813
0.00999333
0.0100465
0.0101831
0.00996499
0.00904067
0.0106616
0.0105053
0.00538525
0.01038
0.00953566
0.00386519
0.00101702
0.0171004
-0.0180254
1.25496e-05
0.00548545
-0.0711539
0.100846
-0.0805015
-0.206597
0.347215
-0.162838
-0.156824
-0.107852
-0.134392
-0.175873
-0.242647
-0.311047
-0.415797
-0.538436
-0.679357
-0.884577
-1.03543
-1.25625
-1.36355
-1.32148
-1.0571
-0.170715
1.15323
3.69308
6.92977
11.6438
17.1509
24.078
31.455
39.0231
46.6216
53.0683
59.2332
62.9074
65.091
66.3012
63.0018
59.9637
54.8111
49.0632
40.1517
20.1546
38.0799
-11.0629
1.18357
-11.15
-30.065
-39.7378
-52.7131
-65.5388
-75.1234
-83.7832
-92.1418
-98.7895
-103.684
-105.573
-106.473
-103.035
-99.6555
-92.6041
-77.5115
-66.9168
-54.9097
-44.2745
-34.5257
-26.7018
-20.7797
-15.7885
-13.0353
-11.3507
-10.6291
-9.956
-9.37745
-9.25818
-9.32372
-9.2167
-8.99233
-8.77642
-8.13847
-6.51867
-5.18528
-3.97477
-1.49001
-0.853656
-0.261089
0.898377
1.80059
2.52776
3.21542
3.84431
4.18949
4.86637
5.6867
4.9941
4.80023
4.31574
3.35497
2.17083
0.204733
4.86422
7.36207
-41.0351
36.4177
9.14325
-132.725
38.626
-119.199
-97.8771
-60.4136
-21.2396
13.2937
39.3818
56.8357
68.9028
82.229
88.1236
98.5065
111.606
128.358
148.658
171.621
196.441
222.4
247.921
271.81
288.518
297.773
285.257
247.838
157.818
81.4991
38.1348
18.8634
12.0349
7.63021
-2.79691
-1.75416
-0.551503
1.20978
3.09027
3.96116
4.9734
6.64487
7.38831
9.26094
13.0056
16.2012
19.0245
21.4787
23.5071
25.0968
26.2531
27.0322
27.4757
27.6455
27.5096
27.122
26.2261
24.9675
0.0140207
0.0158703
0.0128501
0.00886354
0.00717258
0.00710561
0.00700139
0.00655611
0.00588358
0.00523284
0.00506145
0.00437965
0.00361469
0.00384264
0.00291831
0.00130409
0.000523837
0.000359769
-0.00485091
-0.00347694
-0.00608352
-0.0128049
-0.000936428
-0.0201613
-0.0377335
0.0180152
-0.00551979
-0.156017
0.0477061
-0.0325967
-0.0619349
-0.0741655
-0.0857118
-0.109953
-0.134579
-0.188431
-0.226871
-0.285741
-0.270722
-0.241858
-0.209442
-0.120154
0.0525691
0.354413
0.803289
1.4278
2.41236
3.6283
5.3535
7.26678
9.6908
12.2177
14.8993
17.8322
20.1488
22.3455
23.9459
24.3637
24.1273
22.9143
20.6871
16.7882
13.0267
7.64504
1.05663
-8.21726
-3.21756
-32.6702
-19.7416
-27.5479
-37.398
-43.4126
-46.4509
-48.5162
-50.2282
-50.8393
-49.7137
-47.92
-44.7554
-41.6668
-37.3452
-33.3708
-29.0119
-24.4186
-20.9414
-17.7529
-15.2934
-13.6788
-12.5869
-11.6505
-10.5739
-10.2148
-10.2902
-9.95987
-9.72641
-9.45756
-9.35938
-8.80709
-8.06149
-6.77945
-5.10677
-4.1911
-3.06416
-1.37706
-0.815579
-0.561737
0.954876
1.64229
2.38437
3.10288
3.6344
4.09337
5.10438
5.28886
4.49455
4.58243
3.64074
2.96424
-0.56961
-2.7357
2.68694
27.632
-95.6832
29.6393
33.4554
-155.578
-135.955
-113.312
-87.02
-47.2983
-13.459
14.386
23.4292
32.3601
35.8112
42.9243
50.8836
62.1278
75.5611
91.8798
111.209
133.268
157.657
183.581
210.415
237.182
261.384
280.15
289.719
277.859
230.057
150.482
79.7336
40.8945
20.5487
12.4483
7.45603
0.00234381
-0.391709
0.443485
2.11752
2.90121
3.47598
5.6986
6.60288
8.48326
12.0637
15.4918
18.4984
21.0632
23.1559
24.8103
26.0133
26.8672
27.409
27.7511
27.8317
27.7714
27.1668
26.2827
0.010844
0.0108419
0.0092785
0.00733721
0.00602575
0.00531586
0.00473483
0.00404087
0.00326602
0.00254114
0.0019617
0.00137087
0.000857417
0.000402005
-0.000333216
-0.00128848
-0.00229197
-0.00369489
-0.00572767
-0.00720355
-0.00953237
-0.0111294
-0.0114379
-0.0128578
-0.0142528
-0.0106019
-0.0177779
-0.0387477
0.014086
-0.0217266
-0.0227706
-0.0132784
-0.00707589
0.00120199
0.000293785
0.0114764
0.00371012
-0.00475308
-0.00331983
0.00690698
0.0229358
0.051045
0.107996
0.150663
0.349764
0.551714
0.815243
1.1143
1.51384
1.94591
2.45078
2.97341
3.55784
4.21716
4.75556
5.31494
5.68809
5.88004
5.91097
5.75332
5.29456
4.53471
3.50081
2.13064
0.413662
-1.25475
-3.55213
-5.92493
-8.11522
-7.72934
-15.495
-12.3104
-14.5862
-16.4967
-17.2255
-17.5864
-17.5414
-17.274
-16.7164
-16.1177
-15.2968
-14.4585
-13.7208
-12.8571
-12.3011
-11.4806
-11.5584
-10.8272
-10.4028
-10.2959
-10.0342
-9.86139
-9.74937
-9.55075
-9.41797
-9.12314
-8.50991
-7.59575
-6.62079
-5.42704
-4.26404
-3.70806
-2.67634
-1.37523
-0.980104
-0.461044
0.846252
1.52257
2.33592
3.05601
3.5157
4.22322
5.15674
4.57677
4.08117
4.04038
3.5244
4.89845
1.60669
-18.5034
-2.0558
72.519
-158.328
-46.7364
-9.95582
-179.642
-165.842
-118.886
-71.1039
-31.0808
-6.71349
6.1169
8.66718
12.2532
14.0861
18.5541
25.0591
35.6668
48.9845
64.5463
82.6468
103.251
125.914
150.554
176.69
202.939
228.918
251.916
270.299
277.858
261.857
206.713
137.877
81.0497
39.8789
21.4156
13.3792
7.23408
1.30619
0.720215
1.63086
2.12497
2.12182
4.20474
6.19644
7.61678
10.6289
14.8624
17.8534
20.4629
22.5594
24.2099
25.428
26.331
26.9572
27.524
27.8957
28.3088
28.1303
27.8529
0.00872386
0.00813794
0.00703954
0.00577901
0.00465938
0.00372682
0.00287468
0.0020241
0.00118644
0.000413848
-0.000265468
-0.000883891
-0.00146565
-0.00208053
-0.00283491
-0.00377863
-0.00495263
-0.00646575
-0.00828964
-0.0102521
-0.0122993
-0.0138858
-0.0130317
-0.0132553
-0.0144856
-0.0141221
-0.0137075
-0.0137074
-0.00444064
-0.00441143
0.00249615
0.0137291
0.0254601
0.0398784
0.0537309
0.0711177
0.0890228
0.104172
0.116775
0.147752
0.158538
0.177337
0.214304
0.232303
0.297495
0.367157
0.458231
0.557409
0.69324
0.812648
1.02798
1.21118
1.39094
1.57298
1.7142
1.83302
1.9109
1.93127
1.90291
1.81994
1.65258
1.41148
1.10018
0.6941
0.208199
-0.344846
-1.01838
-1.71843
-2.4345
-3.19033
-4.18583
-4.73904
-5.51538
-6.19704
-6.86185
-7.43494
-7.85897
-8.20306
-8.47026
-8.69775
-8.86378
-9.00364
-9.10571
-9.10062
-9.16357
-9.1628
-9.19439
-9.25474
-9.22705
-9.22662
-9.20553
-9.09487
-9.11635
-8.90588
-8.56292
-8.00638
-7.20119
-6.37171
-5.59991
-4.69545
-3.98309
-3.52234
-2.45082
-1.35351
-1.22471
-0.125132
0.882426
1.49004
2.341
3.07874
3.646
4.37775
4.58048
4.20999
4.12323
2.29198
-4.48105
1.48407
10.9081
-46.4497
-27.4391
116.244
-198.145
-138.622
-161.777
-173.42
-140.255
-87.1778
-38.9424
-16.804
-3.75772
-2.07114
0.172963
0.601926
2.24813
2.32057
9.31868
19.42
32.6356
47.1643
63.4716
82.3361
102.832
125.04
148.845
173.518
198.146
221.932
242.688
258.283
261.666
235.515
178.963
123.915
76.6782
38.2518
20.1017
13.2358
5.83183
2.69112
1.98465
1.80031
1.07847
2.64928
5.40087
6.81721
9.1963
13.8631
17.0223
19.6175
21.5785
23.0775
24.1927
25.1194
25.8405
26.7086
27.4987
28.5973
29.078
29.5951
0.00705872
0.00627529
0.00528453
0.00419883
0.00311852
0.0020853
0.00109648
0.000146639
-0.000750632
-0.00157562
-0.00232481
-0.00302107
-0.00370514
-0.00443781
-0.00529053
-0.00632668
-0.00760021
-0.0091488
-0.0109441
-0.0128876
-0.0146866
-0.0162761
-0.0152203
-0.015791
-0.0156384
-0.0151468
-0.0134111
-0.00997598
-0.00470853
0.00152779
0.0104259
0.0218982
0.0352359
0.0509972
0.0684944
0.0885789
0.109913
0.133062
0.157384
0.185089
0.211142
0.239548
0.268981
0.296868
0.327286
0.364058
0.408467
0.45279
0.511139
0.555823
0.643816
0.723288
0.795868
0.86077
0.911301
0.949994
0.969051
0.960147
0.93078
0.859986
0.789021
0.666617
0.503335
0.297187
0.0480506
-0.239413
-0.577557
-0.954947
-1.35287
-1.80217
-2.29703
-2.82543
-3.29808
-3.78551
-4.27895
-4.73293
-5.13407
-5.51414
-5.87029
-6.21981
-6.54116
-6.86686
-7.14216
-7.35218
-7.58461
-7.7981
-8.01745
-8.13508
-8.32506
-8.4403
-8.45745
-8.3711
-8.17848
-7.81036
-7.34498
-6.77957
-6.1794
-5.64567
-5.04538
-4.35933
-3.87361
-3.1993
-1.90502
-1.29536
-1.49519
0.219723
0.965159
1.60196
2.32896
3.25017
4.12623
4.19713
3.30335
3.77937
4.45408
3.65106
-2.41849
-14.8688
43.6332
-88.2051
-78.8501
64.5968
-213.959
-234.189
-203.611
-154.306
-85.8243
-42.0366
-16.2921
-10.2537
-3.90368
-6.65394
-11.8889
-14.9924
-12.4627
-8.49937
-0.0344307
10.3635
24.1863
39.1089
52.1069
69.5433
87.7393
107.178
128.155
150.017
172.536
194.92
215.416
232.638
244.296
237.345
203.568
156.067
107.531
67.6898
35.793
18.7213
11.8087
4.59219
3.14955
2.16033
0.541548
1.29457
4.47027
5.64252
8.06004
12.5468
15.8142
18.0987
19.6847
20.8885
21.8607
22.8154
23.6648
24.9404
26.3552
28.3976
29.8167
31.4195
0.00563394
0.00476127
0.00376219
0.00268766
0.00158676
0.000494497
-0.000568093
-0.00158558
-0.00254352
-0.00343347
-0.00426097
-0.005049
-0.00583597
-0.00667243
-0.00761421
-0.00871238
-0.0100036
-0.0114967
-0.013152
-0.0148634
-0.0163574
-0.017664
-0.0172308
-0.01695
-0.0166172
-0.0156707
-0.0129726
-0.00909187
-0.0038029
0.0030883
0.011902
0.0227605
0.0356097
0.050596
0.0676176
0.086889
0.107865
0.131062
0.156057
0.18307
0.210943
0.240593
0.271009
0.301336
0.332179
0.362971
0.395548
0.427973
0.463376
0.495539
0.530468
0.567247
0.602803
0.633734
0.656716
0.670964
0.67224
0.659113
0.625738
0.567358
0.498964
0.40456
0.28515
0.136754
-0.0416668
-0.244412
-0.486726
-0.755934
-1.04727
-1.3741
-1.71482
-2.08768
-2.45625
-2.82762
-3.21455
-3.59511
-3.96189
-4.33175
-4.69476
-5.06463
-5.41153
-5.7718
-6.08668
-6.41825
-6.72501
-7.01573
-7.25546
-7.44629
-7.55749
-7.58317
-7.54408
-7.37897
-7.13051
-6.81308
-6.49182
-6.06241
-5.67507
-5.24083
-4.64043
-4.13069
-3.65591
-2.72792
-1.90457
-0.882448
-1.4314
0.491976
1.07857
1.81891
2.22904
3.52492
4.54093
4.2369
1.62502
-3.3633
0.138474
7.04825
-23.6643
-31.4754
67.3127
-124.024
-121.513
-144.714
-237.083
-233.742
-163.863
-86.7421
-44.0677
-16.1911
-8.1563
-1.50309
-9.77241
-19.4439
-25.5133
-27.0954
-21.3837
-14.5389
-3.94997
8.34775
24.9236
34.0901
45.7388
63.0962
79.4065
96.0585
114.081
133.253
153.224
173.614
192.897
210.104
225.025
227.992
210.388
175.049
132.255
90.3901
56.5181
31.8463
17.0868
10.4676
4.16962
2.58616
0.502431
0.700584
3.70449
4.81462
6.79512
10.5889
13.5866
15.3447
16.2875
17.0565
17.8759
18.8858
19.9837
21.7492
24.149
27.3538
30.0551
33.0398
0.00424427
0.00331357
0.00228516
0.0011904
6.24277e-05
-0.00106837
-0.00217686
-0.00324357
-0.00425545
-0.00520853
-0.00611079
-0.00698308
-0.00785737
-0.00877307
-0.00977106
-0.0108853
-0.0121332
-0.0135039
-0.0149464
-0.0163507
-0.0174969
-0.0184026
-0.0178111
-0.0174704
-0.0162393
-0.0149193
-0.0120769
-0.00806419
-0.00284001
0.00377152
0.0119433
0.0218095
0.0334469
0.0469303
0.0622888
0.0796081
0.0987424
0.119851
0.142812
0.167647
0.19396
0.221722
0.250643
0.280188
0.310243
0.340388
0.370564
0.399905
0.428919
0.455812
0.480599
0.503331
0.522838
0.537725
0.546975
0.548829
0.541846
0.522554
0.493392
0.4454
0.38293
0.301592
0.202075
0.0817544
-0.0663338
-0.229148
-0.417675
-0.628218
-0.86138
-1.1188
-1.39316
-1.68835
-1.99867
-2.31787
-2.65338
-2.99207
-3.3434
-3.70201
-4.06436
-4.43064
-4.7871
-5.14141
-5.47286
-5.79185
-6.06416
-6.3156
-6.4913
-6.62986
-6.70074
-6.70578
-6.64904
-6.54368
-6.37864
-6.16965
-5.91363
-5.57387
-5.26579
-4.77352
-4.24061
-3.86562
-3.14709
-2.14329
-2.11314
-0.75112
-0.421225
0.50489
1.30811
2.20638
2.28992
3.14837
4.44618
1.24088
5.98498
2.39409
-19.6595
29.5025
-42.8967
-62.1001
8.49837
-128.761
-221.85
-259.155
-259.966
-158.644
-84.0465
-42.0548
-18.234
-6.65734
6.50031
-6.59952
-21.6892
-33.1747
-37.2836
-35.3275
-26.9707
-16.4512
-3.98417
9.25357
23.8846
37.6487
44.7692
57.0252
75.7829
89.378
104.516
120.771
137.964
155.849
173.245
189.526
205.04
213.394
206.524
182.837
147.971
109.085
73.958
46.0544
26.8262
15.4627
7.90327
4.02002
0.71338
-0.0149499
2.09134
3.83571
4.9515
7.09215
9.98172
10.5449
10.5676
10.969
11.7322
12.8932
14.5545
16.7693
20.8318
24.5931
30.1385
34.0003
0.00259211
0.00161707
0.000560542
-0.000553798
-0.00169993
-0.00285222
-0.00398791
-0.00508921
-0.00614489
-0.00715196
-0.00811677
-0.00905465
-0.00998787
-0.0109421
-0.0119409
-0.0129994
-0.0141156
-0.0152631
-0.0163828
-0.0173707
-0.0180455
-0.0183361
-0.0173131
-0.016801
-0.0154047
-0.0131005
-0.0101214
-0.00615266
-0.00113993
0.00502708
0.0124694
0.0212991
0.0316076
0.0434705
0.0569462
0.0720983
0.0889206
0.10745
0.127657
0.149505
0.172838
0.197514
0.223356
0.249982
0.277186
0.304487
0.331743
0.358078
0.38334
0.406313
0.426866
0.443695
0.456401
0.464483
0.466957
0.462527
0.449923
0.42836
0.394921
0.353607
0.298441
0.227146
0.139757
0.0360317
-0.0893274
-0.233619
-0.394798
-0.574011
-0.773323
-0.990631
-1.22736
-1.4793
-1.75062
-2.03286
-2.33316
-2.6404
-2.96188
-3.28516
-3.61453
-3.94103
-4.25919
-4.57093
-4.85375
-5.1355
-5.35509
-5.57555
-5.7222
-5.86099
-5.9257
-5.96201
-5.9539
-5.87451
-5.76791
-5.5958
-5.35425
-5.06836
-4.74432
-4.23536
-3.81252
-3.41843
-2.47584
-2.01567
-1.67597
-0.678631
0.0375048
0.694437
1.81459
2.86255
3.44815
1.29018
-1.97657
-6.23351
6.33789
4.61862
-48.2703
36.8775
-62.6079
-75.2989
-148.216
-216.624
-307.559
-253.585
-157.84
-77.9407
-38.8219
-17.3767
13.3147
15.2284
-0.888774
-22.7691
-38.7779
-49.3588
-47.8762
-40.993
-30.7289
-18.1369
-4.55409
9.23885
23.4207
38.5939
45.0138
55.3684
71.7663
84.1056
96.923
110.601
125.171
140.534
155.839
170.787
185.674
196.364
196.227
181.913
155.303
121.926
88.0823
59.1176
37.0664
21.8008
13.0938
6.05522
3.63421
-1.34371
0.265259
1.39528
1.40665
2.59819
2.91236
2.68073
1.70869
2.24782
3.67296
4.89009
7.69576
10.419
16.7017
21.5253
29.0898
34.0544
0.000573253
-0.000424017
-0.00148843
-0.00260092
-0.00374028
-0.00488558
-0.00601795
-0.00712223
-0.00818797
-0.00921013
-0.0101909
-0.0111373
-0.0120597
-0.0129682
-0.0138687
-0.0147578
-0.0156175
-0.0164107
-0.0170762
-0.0175081
-0.0174476
-0.0163824
-0.0152684
-0.0144303
-0.0124977
-0.0100543
-0.00685137
-0.00284468
0.00205603
0.00793161
0.0148716
0.0229635
0.0322861
0.0429079
0.054885
0.0682717
0.0830624
0.0992992
0.116955
0.135961
0.156235
0.177571
0.199903
0.222698
0.245888
0.269149
0.292051
0.314252
0.334726
0.354255
0.371018
0.384331
0.393654
0.398134
0.396913
0.389046
0.37369
0.349742
0.316799
0.272372
0.21699
0.149184
0.0683992
-0.0261965
-0.135905
-0.261207
-0.402391
-0.559056
-0.732412
-0.920448
-1.126
-1.34358
-1.58013
-1.82407
-2.0877
-2.35253
-2.63538
-2.91415
-3.20236
-3.48579
-3.76062
-4.03617
-4.27936
-4.52889
-4.72497
-4.9288
-5.06323
-5.20363
-5.26903
-5.31919
-5.31525
-5.24417
-5.16697
-4.96259
-4.76725
-4.48082
-4.1195
-3.7432
-3.35841
-2.46687
-2.35174
-2.08089
-0.720313
-0.14542
0.939751
1.00919
0.688276
4.21159
0.521521
4.59086
6.83831
-22.8838
9.64064
-6.6718
-64.0965
-18.5112
-108.555
-162.97
-295.541
-311.803
-212.736
-124.877
-67.3907
-23.9102
4.85838
39.1827
32.3579
10.235
-20.5303
-44.7388
-52.6868
-57.2313
-50.647
-41.8697
-30.8803
-18.5351
-5.53573
7.7768
21.343
35.8523
42.3645
51.9335
66.4903
77.543
88.7502
100.579
113.163
126.503
139.993
153.642
167.533
178.843
182.554
174.864
155.65
128.368
98.0548
69.7498
46.2251
29.1455
17.1724
8.52996
3.43433
0.664646
-1.2548
-2.0867
-4.03771
-6.37837
-7.86211
-9.04739
-9.83111
-8.67688
-5.82448
-1.95396
0.00852438
3.94484
12.8533
18.9998
27.635
32.866
-0.00186387
-0.0028408
-0.00386885
-0.00493217
-0.00601325
-0.00709514
-0.00816235
-0.00920162
-0.0102009
-0.0111483
-0.0120444
-0.0128875
-0.0136741
-0.0143993
-0.0150534
-0.0156185
-0.0160662
-0.0163526
-0.0164064
-0.0160541
-0.0149709
-0.0132202
-0.0116736
-0.0103746
-0.00790253
-0.00504152
-0.0015888
0.00257842
0.00752912
0.0133342
0.0200578
0.0277598
0.0364935
0.0463047
0.0572285
0.0692925
0.0825202
0.096841
0.112229
0.128632
0.145938
0.164063
0.182683
0.201965
0.221348
0.240505
0.259085
0.276618
0.292768
0.306589
0.317867
0.325961
0.330214
0.329943
0.324426
0.31287
0.294524
0.268553
0.234307
0.190889
0.137739
0.0739658
-0.000823384
-0.0874769
-0.186257
-0.297994
-0.422663
-0.560544
-0.711986
-0.875953
-1.05443
-1.24305
-1.44808
-1.65834
-1.8873
-2.11444
-2.36094
-2.59948
-2.85091
-3.09501
-3.33338
-3.57465
-3.78264
-4.00529
-4.17279
-4.35226
-4.475
-4.5856
-4.65586
-4.67629
-4.68101
-4.58872
-4.52952
-4.29158
-4.16809
-3.77441
-3.58848
-3.21428
-2.71383
-1.79566
-2.48026
-0.436996
-0.672322
-0.157194
3.50378
2.38106
3.18324
-2.80169
-6.89745
-0.525218
23.7401
-48.1841
-9.48652
-27.5453
-93.0913
-122.854
-239.454
-337.476
-245.444
-171.18
-94.6387
-51.9426
-19.5427
25.1753
79.8677
55.6605
18.0156
-15.209
-49.9632
-57.7032
-61.6947
-57.2204
-50.0339
-41.8204
-32.8481
-23.0804
-12.4379
-0.830919
11.5789
25.1589
33.3445
44.5061
58.1877
68.3928
78.8397
89.6645
101.026
112.936
125.137
137.786
150.858
162.392
168.003
164.373
150.75
128.91
102.796
76.5256
53.1513
34.9635
21.4822
10.5842
2.71576
0.382626
-2.85342
-9.55853
-14.4313
-18.8531
-21.5919
-21.6171
-20.7378
-17.754
-13.3895
-8.956
-5.75187
0.582042
11.2358
17.7585
24.9783
30.8246
-0.00470303
-0.00559423
-0.00650696
-0.00743079
-0.00835281
-0.00926022
-0.0101411
-0.0109857
-0.011782
-0.0125205
-0.0131858
-0.013765
-0.0142457
-0.0146116
-0.0148435
-0.0149175
-0.0148019
-0.0144436
-0.0137477
-0.0126334
-0.010797
-0.00839335
-0.00784811
-0.00426425
-0.00153769
0.00204831
0.00595654
0.0104335
0.0155862
0.0214714
0.0281251
0.0355756
0.0438446
0.0529476
0.0628933
0.0736801
0.0852802
0.0977219
0.110953
0.124895
0.139446
0.154452
0.16977
0.185051
0.200121
0.214666
0.228345
0.240761
0.251506
0.260102
0.266058
0.268854
0.267955
0.262806
0.252831
0.237423
0.21601
0.187975
0.152773
0.109825
0.0587001
-0.00129422
-0.0703763
-0.149331
-0.238114
-0.337609
-0.447321
-0.568124
-0.699475
-0.841706
-0.995252
-1.158
-1.3338
-1.51436
-1.71082
-1.9046
-2.11691
-2.31882
-2.53595
-2.74167
-2.94617
-3.14978
-3.32461
-3.51203
-3.65113
-3.79335
-3.90524
-3.9649
-4.05598
-4.01124
-4.05119
-3.91515
-3.83534
-3.70435
-3.35339
-3.29736
-2.67397
-2.29362
-2.82247
-0.904247
-1.39015
0.472496
2.02715
0.266101
-2.15892
-7.1383
4.68827
5.86304
-25.388
-8.90995
7.34918
-45.5329
-62.2586
-125.714
-214.576
-318.734
-263.818
-191.83
-113.587
-89.4771
-20.3026
17.2915
82.289
93.8964
66.0617
22.7963
-24.6265
-46.3419
-65.5753
-66.3711
-62.1832
-55.893
-49.007
-42.0463
-34.7083
-26.8287
-18.1182
-8.39962
2.31132
13.3675
22.8997
35.4392
47.5089
57.9493
68.366
78.8613
89.5882
100.56
111.729
123.178
134.503
143.676
152.712
152.624
142.699
125.242
103.055
78.8975
56.3327
38.6394
24.4113
10.2529
0.281785
-2.98434
-9.2469
-22.8897
-28.4051
-31.356
-31.889
-29.694
-27.1476
-22.5778
-18.24
-13.5928
-6.10407
0.787701
8.81056
15.7555
22.8364
27.8902
-0.00764367
-0.00834139
-0.00903609
-0.00971856
-0.010377
-0.0109989
-0.0115708
-0.012076
-0.0125063
-0.0128447
-0.0130805
-0.0131968
-0.0131757
-0.012999
-0.0126507
-0.0121186
-0.0113724
-0.0102976
-0.00896487
-0.00702208
-0.00498423
-0.00250391
0.000780555
0.00294731
0.00644808
0.0101896
0.0140706
0.0187496
0.0240309
0.0299071
0.0363818
0.0434626
0.051152
0.0594515
0.0683417
0.077798
0.0877851
0.0982461
0.109133
0.120377
0.131874
0.143479
0.155008
0.166246
0.176922
0.186735
0.195394
0.202541
0.207786
0.21074
0.210991
0.208122
0.20171
0.191337
0.176581
0.157006
0.132257
0.10186
0.0653724
0.022721
-0.0267446
-0.0835755
-0.147741
-0.219743
-0.299513
-0.387978
-0.484027
-0.589225
-0.701601
-0.82381
-0.953416
-1.09287
-1.24041
-1.39496
-1.55954
-1.72392
-1.90252
-2.06986
-2.25421
-2.41832
-2.59309
-2.7477
-2.89568
-3.03143
-3.14284
-3.23914
-3.32147
-3.34359
-3.40996
-3.33833
-3.33171
-3.22583
-2.98547
-3.03729
-2.57214
-2.30832
-2.58517
-1.23736
-1.29032
2.01062
0.0867417
1.68519
-3.79836
-0.666691
9.96445
-22.7983
-0.473058
3.46383
-34.5858
-51.4625
-67.8635
-94.5086
-205.062
-315.341
-251.419
-176.571
-103.258
-91.9016
-24.1668
13.5444
87.1805
115.853
102.727
62.0491
12.3687
-34.4847
-52.9781
-70.7634
-69.6003
-64.8158
-59.1413
-53.5471
-48.3007
-43.3834
-38.4017
-32.8379
-26.1983
-18.2852
-8.3408
0.623173
11.3885
23.7395
35.962
47.5616
58.8983
70.1347
81.4232
92.8273
104.381
116.068
127.224
136.139
136.59
134.925
131.362
117.596
98.189
76.443
56.7299
40.1048
22.5293
4.22124
-4.45725
-10.9798
-25.894
-34.828
-37.6951
-36.8055
-35.0501
-31.6632
-27.4124
-24.6118
-18.0932
-12.6908
-6.24006
0.47741
7.78169
14.2564
20.9082
25.4329
-0.0103181
-0.0107627
-0.0111676
-0.0115265
-0.0118308
-0.0120712
-0.0122378
-0.0123204
-0.0123052
-0.0121825
-0.0119338
-0.0115432
-0.0109914
-0.0102602
-0.00933233
-0.00818166
-0.00692184
-0.00523191
-0.00317997
-0.000870959
0.00161917
0.0042918
0.00722
0.0105105
0.0150365
0.017624
0.02138
0.0274379
0.0321162
0.0373887
0.043161
0.0493553
0.0559353
0.0630127
0.070339
0.0780062
0.085867
0.0938176
0.101867
0.110014
0.118146
0.126085
0.133595
0.140552
0.146544
0.151239
0.154541
0.156429
0.156102
0.153363
0.147959
0.13951
0.127708
0.112246
0.0928487
0.069215
0.0412587
0.00847983
-0.0295586
-0.0705117
-0.119953
-0.174884
-0.235172
-0.29973
-0.369972
-0.446625
-0.528873
-0.617822
-0.710323
-0.810997
-0.914949
-1.03009
-1.147
-1.27609
-1.40406
-1.54069
-1.67701
-1.81103
-1.95022
-2.07118
-2.20234
-2.29766
-2.40741
-2.4727
-2.53967
-2.58211
-2.59403
-2.59719
-2.58735
-2.51129
-2.46761
-2.2094
-2.22988
-1.41013
-1.9499
-1.45474
-0.712643
-0.0820814
1.73314
-1.11869
-7.52086
4.87385
-4.17137
-18.1804
32.4386
-45.2739
-67.9743
-14.1985
-73.6476
-187.002
-192.047
-283.549
-220.059
-124.012
-115.438
-46.8117
-16.6293
38.663
121.247
126.791
111.152
82.7722
36.4984
-12.9752
-38.6943
-66.5192
-70.8143
-69.0928
-65.3106
-60.6819
-55.7861
-51.1812
-47.1161
-43.58
-40.2082
-36.4359
-31.7782
-26.2309
-17.4659
-8.40644
-1.26514
11.2608
23.0788
34.9025
46.6554
58.3043
69.8953
81.5118
93.2577
105.161
115.761
123.352
127.282
126.086
113.71
105.43
89.3597
70.8939
52.3919
32.3275
10.1287
-6.4471
-12.4815
-26.2523
-34.4536
-37.1978
-36.1294
-32.6426
-31.473
-29.1947
-24.7163
-21.2809
-16.3086
-11.0826
-5.24598
0.858986
7.35713
13.0813
19.0303
22.7635
-0.0116585
-0.0119268
-0.0121365
-0.0122829
-0.0123588
-0.0123567
-0.0122686
-0.0120853
-0.0117966
-0.0113911
-0.0108559
-0.0101765
-0.00933632
-0.0083158
-0.00708557
-0.00558485
-0.00386614
-0.00160674
0.000817529
0.00333997
0.00595923
0.00866589
0.0113553
0.014314
0.0175825
0.0210025
0.024672
0.0286814
0.032941
0.0374798
0.0422954
0.047377
0.0526518
0.0603041
0.06376
0.0723798
0.0785105
0.0826106
0.0876927
0.0928813
0.0981873
0.103223
0.107573
0.111443
0.112864
0.117243
0.111683
0.110884
0.108777
0.102568
0.0941726
0.083305
0.0692408
0.0518064
0.0307479
0.0059409
-0.022495
-0.0548954
-0.0921287
-0.123251
-0.197654
-0.231705
-0.261391
-0.342037
-0.38796
-0.444933
-0.51368
-0.587383
-0.65631
-0.731862
-0.808847
-0.896414
-0.981522
-1.08417
-1.17507
-1.2859
-1.37561
-1.48097
-1.56506
-1.65421
-1.72754
-1.77045
-1.84004
-1.82121
-1.86927
-1.78972
-1.83372
-1.71383
-1.60786
-1.74245
-1.51535
-1.40026
-0.874443
-0.565905
-0.477203
-0.173376
-0.169414
-2.35379
-4.1533
12.6717
-25.3063
-3.7074
6.38014
-52.2734
-50.6114
-31.3795
-136.948
-182.981
-293.256
-258.131
-130.813
-123.014
-41.171
-5.1525
53.643
121.441
107.548
94.9187
87.1102
78.4647
58.2967
20.0835
-20.0087
-45.5457
-62.3675
-66.2133
-66.2996
-64.1566
-60.7124
-56.4946
-51.8413
-47.2703
-43.2485
-39.8802
-36.9702
-34.0707
-30.8541
-26.6647
-19.0979
-11.5646
-6.8137
5.39505
16.1612
27.6644
39.3437
51.0426
62.587
73.8017
84.3519
93.6164
101.426
106.748
111.048
108.334
102.893
90.0913
74.305
55.8955
35.6834
14.4783
-3.91319
-14.5854
-19.304
-27.8042
-28.5361
-28.3537
-26.5023
-24.943
-24.5547
-23.2096
-20.5624
-17.4374
-13.4767
-8.94315
-3.86661
1.41346
7.04378
11.9812
17.1223
20.0996
-0.011983
-0.0121964
-0.0123473
-0.0124318
-0.0124434
-0.0123756
-0.0122213
-0.0119725
-0.0116204
-0.0111552
-0.010566
-0.00984067
-0.00896572
-0.00792456
-0.00669151
-0.00521595
-0.00342064
-0.00107923
0.00134646
0.00381558
0.00636789
0.00892785
0.0116843
0.0145712
0.0175462
0.020599
0.0237511
0.0270242
0.0304267
0.0339654
0.0376429
0.041456
0.0453928
0.0496173
0.0537273
0.0579324
0.0620389
0.0659455
0.0696807
0.0732557
0.0765688
0.0794541
0.081719
0.0832756
0.0837473
0.0830215
0.0809753
0.0779842
0.0732344
0.066651
0.0582096
0.0475853
0.0345805
0.0189686
0.000619778
-0.0205247
-0.0444108
-0.0710453
-0.100235
-0.13043
-0.167293
-0.205147
-0.244986
-0.283485
-0.33628
-0.370379
-0.465848
-0.492987
-0.579296
-0.591259
-0.673265
-0.744358
-0.80572
-0.878144
-0.949004
-1.04252
-1.10211
-1.18226
-1.23155
-1.29587
-1.33512
-1.32084
-1.36051
-1.32321
-1.27467
-1.19632
-1.20494
-1.01555
-1.17285
-0.734337
-0.820546
-0.336747
-0.553799
-1.26949
-1.21762
-2.38558
-3.22047
0.0617494
-17.8426
22.7729
-34.2817
-74.3842
-3.40578
-68.7381
-205.116
-195.255
-326.191
-191.487
-102.825
-72.9872
-6.79009
37.5134
127.738
120.194
100.897
90.7321
74.4454
61.742
52.5709
38.7206
13.6678
-18.9499
-41.5134
-55.4351
-61.3277
-63.3677
-63.2122
-61.028
-57.384
-52.7461
-47.7041
-42.7916
-38.3722
-34.5731
-31.2983
-28.3967
-25.6189
-21.5603
-15.2924
-9.18512
-5.59024
5.07787
13.2397
23.1704
33.4408
43.9727
54.4902
64.7583
74.1978
82.2422
88.5506
92.4167
93.2357
89.138
82.2365
68.6117
52.9421
35.3369
17.4824
1.8628
-8.43184
-13.3307
-16.6867
-17.6232
-16.4965
-16.4642
-16.8439
-16.8703
-17.4539
-17.0624
-15.8742
-13.7483
-10.6919
-6.94577
-2.63649
1.84267
6.64353
10.8532
15.1108
17.4287
-0.0116363
-0.0118598
-0.0120268
-0.0121333
-0.0121734
-0.0121409
-0.0120292
-0.0118311
-0.0115386
-0.0111431
-0.0106349
-0.0100028
-0.0092348
-0.00831653
-0.00723016
-0.00595008
-0.00444123
-0.00266417
-0.000676768
0.00147381
0.0037771
0.00624912
0.00922962
0.0121006
0.0148828
0.0176425
0.0204244
0.0232621
0.0261813
0.0292029
0.03234
0.0356007
0.0389826
0.0424923
0.04608
0.0497072
0.05331
0.0568227
0.0601817
0.0633116
0.0661039
0.0684228
0.0701184
0.0710455
0.0710148
0.0698636
0.0675114
0.0638225
0.0586394
0.0518757
0.0434724
0.0333205
0.0214109
0.00762688
-0.00803634
-0.0256547
-0.0452434
-0.0668868
-0.0905956
-0.116196
-0.144573
-0.176159
-0.209339
-0.246617
-0.283602
-0.31579
-0.361786
-0.397271
-0.457924
-0.493231
-0.577366
-0.699077
-0.732177
-0.692922
-0.785794
-0.880782
-0.922189
-0.989161
-1.01468
-1.0839
-1.03536
-0.99633
-0.740004
-1.3309
-0.862785
-0.936937
-0.505348
-0.884917
-0.576541
-1.04168
-0.630108
-2.30183
-1.40905
-1.0049
-7.01948
0.915043
-11.7367
-15.2553
3.27229
-62.3104
-51.2805
-147.521
-133.12
-262.276
-200.16
-110.124
-120.781
-25.6654
14.9962
98.2569
120.793
105.873
103.65
85.7453
70.1336
59.6943
49.021
39.017
28.5073
8.38938
-14.4588
-34.6797
-47.8371
-55.8876
-60.364
-62.1794
-61.476
-59.5705
-55.7568
-50.5649
-44.7152
-38.9507
-33.8789
-29.6959
-26.0943
-22.851
-19.2292
-15.5971
-10.7952
-5.94481
-2.7038
5.70985
13.69
21.3542
29.3408
37.4284
45.3291
52.3254
59.6107
65.6416
70.0894
72.1422
70.7367
65.929
58.0233
43.095
32.1058
19.1606
7.77294
-0.35006
-3.78805
-5.14747
-6.24275
-6.33537
-5.49868
-6.20364
-6.95299
-8.982
-11.0661
-12.1216
-11.9432
-10.6247
-8.32629
-5.32068
-1.72634
2.01023
6.04131
9.6298
12.8619
14.8812
-0.0107495
-0.0110041
-0.0112148
-0.0113774
-0.0114858
-0.0115334
-0.0115139
-0.0114209
-0.0112474
-0.0109863
-0.0106288
-0.0101659
-0.00958642
-0.00887879
-0.00802839
-0.00701971
-0.00583289
-0.00445384
-0.00288521
-0.00114064
0.000775539
0.00286317
0.00516873
0.00761494
0.0101509
0.0127609
0.0154416
0.0182052
0.0210546
0.0240108
0.0270693
0.0302521
0.0335384
0.0369459
0.0404285
0.043982
0.0475312
0.0510468
0.0544387
0.0576397
0.0605467
0.063031
0.0649819
0.0662268
0.0666496
0.0660442
0.06434
0.061299
0.0569092
0.050865
0.0434141
0.0339212
0.0230332
0.00992273
-0.00480396
-0.0216732
-0.0404396
-0.061144
-0.0840088
-0.108852
-0.135329
-0.165364
-0.195266
-0.233529
-0.261566
-0.28974
-0.326752
-0.368369
-0.406913
-0.443256
-0.492922
-0.525405
-0.599739
-0.667216
-0.700794
-0.781588
-0.83488
-0.877657
-0.985901
-0.957513
-0.810493
-1.59088
-0.187309
-1.17632
-0.687802
-0.942168
-0.95967
-1.64107
-1.04885
-1.93142
-1.73511
-1.90393
-7.75597
12.704
-32.9832
-22.1819
4.96143
-86.7348
-126.781
-86.8623
-187.579
-262.116
-146.427
-96.7249
-75.0662
-3.39482
37.1943
119.472
108.872
106.697
95.0612
80.5823
72.3138
59.869
49.2984
40.5982
33.1024
22.2758
9.1072
-8.13489
-24.4641
-36.9525
-46.0237
-53.0843
-58.3742
-61.6391
-62.6652
-61.2933
-57.5693
-51.7807
-44.841
-37.7534
-31.3967
-26.0997
-21.8358
-18.2441
-14.6667
-11.5835
-8.55624
-4.37916
0.815321
4.01822
11.4972
16.6299
22.1818
27.7133
33.1764
39.1555
43.3155
46.4799
47.9497
48.6125
46.7907
42.824
37.9366
29.1486
18.3165
11.7003
6.94709
4.43763
2.87904
3.1373
4.49214
6.35753
5.96486
3.41248
0.0935984
-3.36983
-6.3799
-8.25954
-8.80553
-8.1566
-6.49303
-4.15446
-1.20338
1.85597
5.18822
8.26623
10.2664
12.5957
-0.00947896
-0.00975284
-0.0100043
-0.0102274
-0.0104127
-0.0105499
-0.0106321
-0.010654
-0.0106109
-0.0104987
-0.0103091
-0.0100374
-0.00966931
-0.00920236
-0.00861387
-0.00790594
-0.00704743
-0.00604574
-0.00486715
-0.00354176
-0.00203477
-0.000366599
0.00148266
0.00349466
0.00564752
0.00794728
0.0103456
0.0129013
0.0155167
0.0183232
0.0211475
0.024202
0.027224
0.0305038
0.0336913
0.0371224
0.0403958
0.0438131
0.0470243
0.0501569
0.0530558
0.0555488
0.0577266
0.0591476
0.0601051
0.0598742
0.0590911
0.0565827
0.0535906
0.0478198
0.0427803
0.032847
0.0248926
0.0114117
-0.000838645
-0.0171286
-0.0348439
-0.0535061
-0.0763811
-0.0998122
-0.125217
-0.15369
-0.183442
-0.213237
-0.256124
-0.283642
-0.328247
-0.377585
-0.40935
-0.452457
-0.489743
-0.546795
-0.580424
-0.72624
-0.69763
-0.581201
-0.838467
-0.932802
-1.01525
-0.925867
-1.12149
-1.34758
-1.36476
-1.39812
-1.72918
-1.54347
-1.57965
-4.19105
-0.303905
-9.95809
-5.95787
5.20821
-35.2181
-10.4489
-50.8377
-82.532
-119.146
-130.687
-224.451
-169.046
-92.1083
-101.818
-20.5045
9.58151
77.3849
92.3347
87.3863
95.671
82.8803
79.2656
71.5422
60.9809
52.1861
43.3743
36.1089
28.575
21.2213
10.9543
-1.58437
-13.5902
-24.2908
-32.6943
-40.3557
-47.991
-54.968
-60.3462
-63.8722
-63.6992
-60.4831
-54.429
-46.6988
-38.5288
-31.0777
-24.8498
-19.9821
-16.1955
-13.009
-10.2397
-7.41432
-4.82109
-0.629585
1.34069
6.21311
9.33891
13.1104
16.6597
20.2209
24.2603
25.8271
27.1185
28.6933
27.954
26.0259
23.6189
18.8593
16.1871
13.9038
11.343
10.3261
10.5918
12.026
14.5693
16.2285
16.2751
13.4443
9.4744
5.00838
0.65394
-2.95785
-5.36656
-6.4265
-6.29195
-5.17973
-3.43505
-1.05837
1.38224
4.09944
6.67128
8.04886
10.0444
-0.00807337
-0.00831844
-0.00859611
-0.00888625
-0.0091686
-0.0094016
-0.00957788
-0.0096968
-0.00975857
-0.0097791
-0.00973
-0.00964607
-0.00945062
-0.00923337
-0.00884379
-0.00844633
-0.00782164
-0.00720142
-0.00625388
-0.00537908
-0.00416751
-0.00290557
-0.00139666
0.000251269
0.0020058
0.0040725
0.00604031
0.00857213
0.0106721
0.0137026
0.0158686
0.0193812
0.0215653
0.0254894
0.0276968
0.0318546
0.0341713
0.0381954
0.040782
0.0441358
0.0470287
0.0493019
0.0521036
0.0530291
0.0553119
0.054196
0.0556916
0.0517074
0.0529113
0.0423004
0.0474278
0.0270127
0.0327797
0.00756531
0.00781271
-0.0130747
-0.0318537
-0.0428059
-0.0732956
-0.0949663
-0.118409
-0.147049
-0.17875
-0.189002
-0.262343
-0.257812
-0.338288
-0.335199
-0.450903
-0.500925
-0.490969
-0.566245
-0.729179
-0.294941
-1.66501
-0.96961
-0.98541
-1.13196
-1.30161
-1.98837
-1.47267
-2.58611
-2.55146
-2.11706
-5.98681
-1.53896
-7.77084
-11.7378
-3.5102
-21.9053
-21.6882
-40.002
-26.3867
-106.144
-124.015
-168.52
-166.731
-88.9215
-108.03
-54.6326
-1.14995
33.0393
89.3216
68.9918
75.4049
72.9921
69.0489
71.1586
64.6582
60.3437
53.9379
46.4541
39.3976
33.0003
27.2392
20.9073
13.4971
3.82332
-4.61273
-12.2356
-18.8236
-24.9105
-31.9075
-40.149
-48.9005
-56.8093
-62.8023
-65.0141
-62.9763
-57.2849
-49.3265
-40.7021
-32.7623
-26.1444
-20.9835
-17.0734
-14.0212
-11.489
-9.10779
-7.10497
-5.07122
-2.27692
0.071534
1.35935
4.04324
5.98526
7.84966
9.79602
10.455
11.2856
12.8079
12.0988
12.2301
11.0832
8.52113
10.6447
11.6934
13.1773
15.2163
17.9882
20.888
23.0845
23.6983
22.0371
18.2472
13.3329
8.20346
3.37064
-0.5523
-3.27538
-4.67313
-4.9378
-4.28405
-3.07842
-1.23494
0.642003
2.82442
4.89504
5.88558
7.23876
-0.00702658
-0.00705125
-0.00733949
-0.0077199
-0.00821225
-0.00854615
-0.00878523
-0.00893471
-0.00899344
-0.00912624
-0.00906576
-0.00923616
-0.00894367
-0.00915919
-0.00853398
-0.00869414
-0.00773213
-0.00792075
-0.00611125
-0.00640632
-0.00464801
-0.0040874
-0.00224087
-0.000770067
0.000524596
0.00310963
0.00385091
0.00800911
0.00768317
0.0138687
0.0120694
0.020367
0.0169954
0.027163
0.0226169
0.0337426
0.0292322
0.039382
0.036995
0.0435987
0.0450783
0.0468897
0.0517704
0.0491629
0.0566822
0.0489019
0.0589126
0.0448996
0.0617737
0.0259734
0.0725298
-0.00328025
0.0725179
-0.0356431
0.0556448
-0.0329691
-0.0264801
0.00339861
-0.0887355
-0.0815884
-0.0604819
-0.154569
-0.174431
-0.115526
-0.281556
-0.262514
-0.440414
-0.0945461
-0.602396
-0.698491
-0.478063
-0.279797
-0.844764
-1.72666
-1.34844
-0.00418316
-3.77459
-1.67135
-0.819403
-4.96216
-1.92364
-8.06854
-4.40432
-10.9275
-12.7809
-7.4317
-26.3054
-9.20388
-28.2279
-45.1407
-76.5828
-73.993
-127.277
-161.632
-90.915
-98.6165
-81.0113
-8.0111
20.4494
67.29
59.9294
62.4625
60.8525
49.1177
53.9347
55.4317
54.7359
53.8375
49.971
46.4452
41.8085
36.5456
31.3653
26.3411
21.0333
14.9898
8.1617
1.32264
-3.38807
-7.26274
-10.8552
-14.9035
-20.5299
-28.1593
-37.6233
-47.6094
-56.4046
-62.5914
-63.1864
-59.2544
-51.91
-43.6424
-35.8339
-29.3204
-24.1276
-20.1485
-17.0973
-14.6598
-12.5842
-10.9431
-9.59528
-7.93393
-6.61116
-5.75945
-4.15219
-3.15723
-2.50904
-1.41275
-0.843049
-0.139839
1.2132
1.89782
3.65815
4.31363
5.99341
9.61236
12.7577
16.0343
19.346
23.791
27.1035
28.5522
28.0205
25.3381
20.857
15.4452
10.0267
5.05002
1.06304
-1.79105
-3.37489
-3.96737
-3.70838
-2.99137
-1.60397
-0.264958
1.44974
2.99434
3.71331
4.05231
-0.00734907
-0.00645005
-0.00713713
-0.00732841
-0.00843026
-0.00838094
-0.00855651
-0.00844355
-0.00817666
-0.00862076
-0.00788658
-0.00905866
-0.00729434
-0.00943
-0.00643593
-0.00889896
-0.00500026
-0.0095558
-4.85291e-05
-0.00833307
-0.000346383
-0.00550562
0.00279624
0.000174525
0.00344217
0.00719198
0.00353361
0.0163173
0.00359434
0.0267632
0.00327239
0.0379162
0.00328388
0.0486481
0.00507214
0.0569773
0.0108683
0.060146
0.0227096
0.0566612
0.0393064
0.0497019
0.0550987
0.0432875
0.0679799
0.0372182
0.0749827
0.0376456
0.0694131
0.0478544
0.107763
-0.0904149
0.220534
-0.179262
0.216058
-0.000559702
-0.121335
0.626327
-0.278162
-0.393315
0.376103
-0.0945666
-0.455599
1.18031
-1.16258
0.107554
-0.590536
0.786834
-1.59244
0.67357
-1.58513
0.333539
-1.99433
-0.724584
-1.7093
-2.58827
-2.79567
-5.19069
-3.71423
-9.23496
-5.8265
-15.9571
-16.0968
-30.9839
-15.1652
-29.4471
-22.5402
-61.8615
-31.1771
-90.702
-133.196
-80.3726
-79.5552
-81.3332
-13.1774
12.4522
47.8374
57.886
57.3181
51.4658
38.7423
41.0042
38.9587
35.5714
39.982
42.3604
42.5155
41.2291
38.7216
36.1601
32.9034
29.0824
24.9715
20.3741
15.161
9.74905
4.83149
1.32931
-0.644778
-1.77503
-2.91898
-4.41463
-7.0996
-11.617
-18.7876
-28.4735
-39.3652
-49.818
-55.8991
-56.7003
-51.8682
-45.4252
-38.7065
-33.0796
-28.2959
-24.4597
-21.4092
-18.9589
-16.9403
-15.4103
-14.3403
-13.2777
-12.4169
-11.7462
-10.9304
-10.3435
-9.88279
-9.07114
-8.05048
-7.35463
-5.69982
-3.69155
-1.32941
1.29687
5.32014
9.97871
14.4995
18.8692
23.1135
27.7628
30.2717
30.9081
29.5566
26.3215
21.4933
16.0033
10.6399
5.85179
2.05862
-0.714436
-2.35745
-3.20499
-3.25276
-2.96571
-2.03185
-1.2059
0.0656211
1.04786
1.57001
1.54401
-0.00999251
-0.00545296
-0.00812709
-0.00417269
-0.00809926
-0.00386961
-0.00469149
-0.00211102
-0.00135975
-0.00239489
0.000524834
-0.00414824
0.00238147
-0.00546422
0.00218701
-0.00192324
0.00315798
-0.0114081
0.0265898
-0.0212059
0.0135628
-0.0164685
0.0183671
-0.00266059
0.00955747
0.0104166
-0.00434461
0.030432
-0.021363
0.0544607
-0.0409032
0.080135
-0.0603427
0.104329
-0.074449
0.121218
-0.0754146
0.122702
-0.054991
0.10279
-0.0102131
0.064239
0.0526423
0.0165737
0.127582
-0.0369001
0.216977
-0.0977455
0.333569
-0.161114
0.475111
-0.211735
0.604343
-0.209187
0.682518
-0.100586
0.655832
0.120643
0.562514
0.34182
0.469783
0.571593
0.234308
0.818379
-0.117587
0.978264
-0.535447
0.994752
-1.04138
0.665164
-1.54248
-0.205025
-2.16921
-1.85119
-3.05692
-4.4694
-4.44278
-7.89253
-6.69115
-12.7294
-10.636
-18.1963
-7.9385
-7.31739
-9.63644
-14.9795
-53.3998
-90.6209
-65.4749
-97.9235
-74.7152
-5.97084
13.7409
46.6288
61.4982
43.7392
33.6062
35.3451
37.2134
30.1237
24.1937
26.1671
25.7301
25.9965
29.6493
31.6284
31.6185
30.4441
28.7642
26.9349
24.5152
21.4034
17.4996
12.9811
8.46709
4.59487
2.02778
0.775653
0.349882
0.70741
1.65702
2.82769
3.41918
2.85604
-0.875953
-8.20653
-18.0097
-28.1322
-35.7579
-42.3063
-43.1173
-40.5795
-36.6804
-33.2951
-30.3709
-27.6311
-25.1385
-22.8972
-20.7711
-18.9896
-17.7541
-16.6075
-16.0144
-15.5214
-15.0597
-14.5281
-13.9997
-13.0823
-11.9127
-10.2049
-9.00789
-5.80782
-3.03108
0.781848
5.58004
10.5629
15.4839
20.0688
24.3243
28.095
29.9033
29.8383
27.9612
24.4733
19.7476
14.6781
9.8883
5.78905
2.60283
0.206032
-1.33108
-2.28423
-2.58201
-2.70386
-2.26553
-1.9606
-1.20217
-0.89348
-0.523041
-0.593892
0.0105511
-0.0349481
-0.0290759
0.00744804
-0.003948
0.0231985
0.0126857
0.0335008
0.0237862
0.030103
0.0277257
0.0181262
0.0308413
0.00321881
0.0346933
-0.0112498
0.0368434
-0.0264169
0.0374798
-0.0383176
0.0283618
-0.0471914
0.0129889
-0.0502535
-0.0101238
-0.0469489
-0.0378393
-0.0370829
-0.067969
-0.0226126
-0.0982478
-0.005746
-0.125118
0.0113528
-0.143653
0.0264102
-0.14828
0.0368223
-0.132644
0.0404522
-0.0924849
0.0386385
-0.0273687
0.0365007
0.0605569
0.0404687
0.16789
0.0573775
0.281076
0.0783897
0.396896
0.117085
0.496538
0.183006
0.563602
0.278931
0.580808
0.401443
0.552509
0.516465
0.50659
0.603651
0.484063
0.727081
0.453567
0.806227
0.411716
0.807238
0.381897
0.733768
0.377024
0.581243
0.387768
0.405507
0.381394
0.363339
0.395929
0.519103
0.870492
0.868086
2.70175
4.53594
5.9621
15.7232
-5.239
-36.1038
-72.2028
-116.913
-14.9096
16.1249
88.8513
89.3755
30.7668
19.5361
32.287
20.3918
13.9254
19.0863
18.679
13.9973
12.9698
14.4167
15.0413
16.3119
18.5026
19.3557
18.7216
17.5567
16.1236
14.4614
12.2825
9.68607
6.90681
4.38991
2.40339
1.1786
0.573079
0.414493
0.5821
1.07692
1.69034
2.39526
2.52429
1.77995
1.15729
-0.665546
-4.81281
-12.8736
-23.7205
-30.911
-32.537
-31.6542
-30.0778
-27.4014
-24.8024
-22.4563
-20.4627
-18.519
-16.4925
-14.5427
-13.2221
-12.0679
-10.4707
-10.5117
-10.2565
-9.90586
-9.50102
-8.9089
-7.9948
-6.34694
-5.417
-2.69892
-0.250332
3.06321
6.80012
10.6254
14.3357
17.5732
19.6715
21.6891
22.3299
21.6184
19.7668
16.9821
13.6707
10.3983
7.45092
5.08666
3.31252
1.619
0.356087
-0.637351
-1.2757
-1.89598
-2.20978
-2.45537
-2.57463
-2.72466
-2.60376
-2.39481
-0.078131
-0.0809209
-0.0847621
-0.0892357
-0.0975993
-0.10262
-0.109174
-0.113447
-0.119679
-0.125279
-0.13122
-0.13794
-0.14255
-0.150172
-0.152913
-0.161172
-0.161514
-0.17014
-0.168097
-0.176893
-0.172844
-0.181086
-0.17559
-0.182339
-0.17624
-0.180396
-0.174921
-0.175641
-0.172323
-0.169071
-0.169468
-0.161979
-0.167531
-0.156065
-0.167996
-0.153652
-0.172694
-0.157683
-0.183693
-0.171538
-0.203375
-0.198816
-0.234588
-0.243014
-0.280599
-0.307178
-0.344695
-0.393465
-0.429595
-0.503012
-0.537168
-0.634152
-0.666911
-0.781315
-0.815059
-0.934753
-0.973337
-1.08009
-1.12601
-1.1993
-1.245
-1.26768
-1.2908
-1.24397
-1.20217
-1.08144
-0.902463
-0.704912
-0.294206
0.00999786
0.722842
1.28342
2.23551
3.49577
4.36611
7.19965
7.57779
12.791
13.6754
19.7477
27.7615
26.6426
57.1869
58.3293
19.3353
-11.5618
-16.9983
-17.7333
-4.73391
-2.20225
13.4064
7.57142
0.442664
1.32866
3.46277
1.35594
1.66019
2.78059
2.61695
2.06301
2.30095
2.64889
2.87665
3.07195
3.29007
3.21703
2.86995
2.49488
2.10679
1.72755
1.33646
0.966315
0.651829
0.411781
-0.0973769
-0.249932
-0.378312
-0.496338
-0.570182
-0.532224
-0.29559
0.239658
1.17169
2.78031
5.10089
7.32584
10.5992
8.84397
2.71859
-20.9573
-33.6533
-38.1125
-37.7861
-35.0802
-31.3625
-27.0927
-22.4991
-17.7912
-12.8489
-7.20194
-2.29372
0.312151
5.91962
9.45343
13.182
16.5441
19.5711
22.2411
24.2834
25.6984
26.6329
26.8361
26.3331
25.2012
23.4256
21.0934
18.6707
14.0576
-2.27634
-2.87648
-1.76181
-0.62212
0.423835
1.28202
1.91473
2.26661
2.43587
2.51249
2.39898
2.1574
1.85288
1.51789
1.13092
0.699362
0.297504
-0.196845
-0.477964
-0.762606
-0.83469
-0.302144
-0.137489
0.944157
1.60412
1.63565
1.46535
1.22746
0.849068
0.347705
-0.13371
-0.425716
-0.71958
-1.28167
-1.93358
-2.52157
-2.95617
-3.14784
-2.82362
-2.24318
-1.14036
-0.410439
0.813939
1.10447
1.13199
0.705734
-1.18769
7.69749
9.55712
14.3322
14.4851
13.9203
12.9246
11.1816
8.21286
4.45825
1.40202
-0.137843
-1.58455
-5.23465
-5.18195
-4.30575
-3.3574
-1.40499
0.338191
3.5788
4.38603
4.3864
3.14829
1.54651
0.843856
-2.55833
7.1686
8.12423
10.5464
11.8485
12.0164
11.0081
8.43858
4.51913
0.360542
-2.34041
-4.03727
-9.01031
-10.0619
-9.76372
-8.10892
-5.20734
-1.75016
-0.14985
3.96722
11.9531
8.99029
4.73931
2.88586
0.913302
-5.91708
8.22716
8.5387
9.81821
10.4225
10.2355
8.86269
5.78047
1.47846
-2.45556
-3.92351
-7.90188
-13.3084
-13.3694
-12.963
-11.0882
-7.47824
-3.44491
-1.27701
3.50957
13.5823
10.4594
5.6677
2.14962
0.536593
-7.82482
9.98048
10.2145
10.794
10.9184
10.2671
8.33958
4.61863
-0.154453
-3.71066
-5.21538
-11.219
-15.175
-15.4878
-15.0388
-13.142
-9.4137
-4.99256
-1.90124
2.3806
13.2278
10.4081
5.48415
1.60622
-0.129159
-9.5369
11.2287
11.1799
11.5776
11.7146
11.0521
8.93128
4.85419
-0.365818
-4.29795
-5.90083
-11.9707
-16.7228
-16.8626
-16.3832
-14.5441
-10.8424
-6.1474
-2.53866
1.4214
12.2059
9.68301
4.80993
1.08324
-0.842256
-11.211
11.8056
11.5429
11.8276
12.0858
11.6982
9.80959
5.75027
0.27841
-4.41231
-6.1384
-10.8177
-17.9145
-17.7283
-17.2359
-15.478
-11.8814
-7.09345
-3.03039
0.627618
10.948
8.62687
3.93995
0.589839
-1.61011
-12.8701
12.0206
11.5971
11.7202
12.0134
11.9189
10.5144
6.81894
1.28817
-3.9963
-6.51827
-9.59639
-17.6754
-18.2027
-17.752
-16.0837
-12.6093
-7.85636
-3.45557
0.00512921
9.62092
7.38588
3.02054
0.161434
-2.43852
-14.5053
12.0525
11.5082
11.4402
11.6761
11.7677
10.8344
7.71351
2.43904
-3.27355
-6.63804
-8.73675
-16.3824
-18.273
-18.0259
-16.4623
-13.1277
-8.42861
-3.85461
-0.514261
8.31632
6.05663
2.16566
-0.190893
-3.46545
-16.0947
11.999
11.369
11.1102
11.2151
11.3642
10.7861
8.29366
3.50312
-2.31388
-6.52012
-8.23737
-14.0922
-18.4389
-18.1496
-16.6973
-13.5039
-8.90965
-4.21632
-0.951081
7.04416
4.71864
1.29347
-0.482981
-4.63668
-17.7836
11.9249
11.2279
10.7893
10.7175
10.8189
10.459
8.53625
4.36318
-1.2684
-6.17807
-7.85517
-11.5765
-18.3591
-18.1977
-16.8568
-13.8005
-9.32249
-4.55903
-1.35125
5.80728
3.42971
0.742018
-1.07593
-5.83517
-19.5582
11.8716
11.1109
10.5051
10.2331
10.2116
9.94794
8.4812
4.96117
-0.27854
-5.40139
-7.93133
-10.1754
-17.1443
-18.0917
-16.9822
-14.0676
-9.70284
-4.9013
-1.73127
4.57478
2.23856
0.322255
-1.75646
-7.13406
-21.1741
11.8639
11.0317
10.2676
9.78537
9.59313
9.3291
8.19028
5.28546
0.586208
-4.55843
-7.67677
-9.32818
-15.4851
-17.87
-17.0987
-14.3429
-10.0887
-5.25723
-2.08871
3.31097
1.12329
0.0269238
-2.61207
-8.4569
-22.627
11.9139
10.9961
10.0782
9.3841
8.99238
8.65781
7.72885
5.36097
1.26807
-3.67735
-7.32824
-8.76273
-12.737
-18.3207
-17.2668
-14.6526
-10.5111
-5.6394
-2.49762
2.02992
0.288912
-0.552312
-3.48106
-9.77866
-23.9161
12.0243
11.0054
9.93482
9.03164
8.42494
7.9706
7.15478
5.2264
1.74039
-2.83821
-6.84779
-8.24876
-11.1734
-17.6344
-17.4288
-15.0078
-10.987
-6.06516
-3.00264
0.752515
-0.438681
-1.19427
-4.45831
-11.0848
-25.0279
12.1919
11.0575
9.8342
8.72628
7.89791
7.29089
6.5141
4.92555
2.00508
-2.11156
-6.14603
-8.08808
-10.0781
-16.5609
-17.4963
-15.4025
-11.521
-6.58161
-3.4949
-0.632014
-1.14183
-1.88075
-5.56598
-12.2996
-25.9848
12.4098
11.1486
9.77237
8.46551
7.41471
6.63338
5.84092
4.5007
2.07705
-1.52939
-5.43079
-7.73894
-9.26745
-15.2255
-17.5103
-15.8222
-12.135
-7.48803
-3.95258
-1.9708
-1.88774
-2.6419
-6.98307
-13.06
-26.9233
12.6694
11.2744
9.74594
8.24711
6.97708
6.00799
5.15942
3.98836
1.98265
-1.11339
-4.77387
-7.35187
-8.66207
-12.9764
-18.1037
-16.2836
-12.8087
-8.42078
-4.9979
-3.10838
-2.73859
-3.46689
-8.03446
-13.9904
-27.8534
12.9625
11.4305
9.75195
8.06967
6.58667
5.42214
4.48665
3.41826
1.75062
-0.87218
-4.20386
-6.92815
-8.10977
-11.3873
-17.9499
-16.7306
-13.4981
-9.10424
-6.16347
-4.15313
-3.83785
-4.5108
-8.98586
-14.9361
-28.7046
13.2828
11.6137
9.78804
7.93268
6.24539
4.88235
3.83456
2.81446
1.4065
-0.796754
-3.74995
-6.50601
-7.60707
-10.2688
-17.3119
-17.0583
-14.1998
-9.9867
-7.34901
-5.30467
-4.98231
-5.64137
-9.97039
-15.8839
-29.4375
13.6264
11.8232
9.8538
7.83595
5.9549
4.39427
3.21185
2.19588
0.973781
-0.871222
-3.43363
-6.05945
-7.35544
-9.38412
-16.4309
-17.2204
-14.858
-10.9331
-8.54603
-6.5967
-6.11287
-6.76645
-11.1199
-16.8593
-30.0229
13.9931
12.0604
9.95143
7.77998
5.71692
3.96197
2.62597
1.57665
0.473951
-1.0775
-3.26567
-5.64481
-7.09198
-8.618
-15.3969
-17.2209
-15.4121
-11.9152
-9.76366
-7.97162
-7.40153
-8.06583
-12.1446
-17.8718
-30.431
14.3857
12.3297
10.0857
7.76736
5.5334
3.58855
2.08424
0.966308
-0.0741992
-1.39779
-3.24226
-5.34144
-6.68885
-8.03232
-13.8991
-17.3906
-15.8285
-12.8672
-10.9924
-9.38644
-8.77304
-9.52901
-13.102
-18.899
-30.6374
14.8094
12.6379
10.2638
7.80238
5.40656
3.27605
1.59341
0.371885
-0.655517
-1.81321
-3.35315
-5.13688
-6.38483
-7.54097
-12.2552
-17.539
-16.081
-13.7109
-12.2007
-10.7947
-10.1885
-11.0568
-13.9373
-20.0303
-30.5218
15.2708
12.9936
10.4956
7.89215
5.33862
3.02585
1.15653
-0.200036
-1.25593
-2.30618
-3.58291
-5.0451
-6.10046
-7.12734
-11.1843
-17.1022
-16.1371
-14.3965
-13.3185
-12.1583
-11.5972
-12.5365
-14.7338
-21.3652
-29.9118
15.7763
13.4046
10.7912
8.04552
5.33348
2.83913
0.774815
-0.744004
-1.86162
-2.86001
-3.91519
-5.0555
-5.84315
-6.80678
-10.4564
-16.3642
-15.9807
-14.8863
-14.2843
-13.4232
-12.9348
-13.9054
-15.539
-23.0756
-28.4265
16.3317
13.8758
11.1534
8.27136
5.39646
2.71672
0.449063
-1.25468
-2.46094
-3.45193
-4.34063
-5.15371
-5.57556
-6.63725
-9.97378
-15.4558
-15.6135
-15.152
-15.0538
-14.523
-14.1535
-15.1174
-16.3674
-25.9887
-25.147
16.9643
14.4396
11.6112
8.58767
5.53391
2.65387
0.145436
-1.78086
-3.11202
-4.09373
-4.92705
-5.2098
-5.57862
-6.62461
-9.6885
-14.3036
-15.0087
-15.1886
-15.6394
-15.4878
-15.3304
-16.2385
-17.4529
-27.443
-21.4247
17.7831
15.1896
12.2388
9.03759
5.75096
2.58807
-0.15623
-2.29047
-3.83154
-4.7493
-5.5454
-5.63525
-5.80316
-6.82706
-10.0171
-12.6531
-14.1897
-14.9262
-15.9098
-16.1457
-16.3675
-17.1573
-18.6067
-26.4698
-18.1657
18.6376
15.9791
12.9101
9.53293
6.00906
2.56425
-0.500469
-2.85967
-4.31638
-5.24717
-6.51385
-6.3007
-6.2724
-7.26866
-9.69169
-11.6652
-13.3375
-14.4243
-15.8232
-16.3885
-17.1042
-17.722
-19.3601
-24.314
-14.6647
19.5465
16.8355
13.6554
10.0967
6.31321
2.54359
-0.861522
-3.26705
-4.25783
-6.47344
-7.27373
-7.1342
-7.01292
-7.76809
-9.40962
-10.881
-12.4835
-13.7453
-15.4156
-16.2426
-17.471
-17.8757
-19.4727
-21.2322
-11.0649
20.5333
17.7853
14.4987
10.7485
6.67453
2.52971
-1.14662
-3.28967
-4.40144
-7.72356
-8.28218
-8.1095
-7.91654
-8.30912
-9.28334
-10.2616
-11.6622
-12.9483
-14.7436
-15.7582
-17.4142
-17.5719
-18.8204
-17.5201
-7.61119
21.6317
18.8712
15.4875
11.5347
7.12546
2.54643
-1.43274
-2.77174
-4.72642
-8.82123
-9.24324
-9.14975
-8.88594
-8.90995
-9.30234
-9.79435
-10.8965
-12.0816
-13.8715
-14.9906
-16.9157
-16.7907
-17.3951
-13.295
-4.56007
22.9013
20.1644
16.6982
12.5337
7.74228
2.70528
-1.23687
-2.53412
-5.03854
-9.76721
-10.2031
-10.186
-9.85442
-9.54883
-9.43025
-9.454
-10.1922
-11.1795
-12.8576
-13.9915
-15.9957
-15.5398
-15.2741
-8.59108
-2.28843
24.445
21.7803
18.2441
13.8627
8.67194
3.15862
-0.791201
-2.15677
-5.22507
-10.4838
-11.027
-11.1505
-10.7634
-10.1771
-9.61394
-9.19891
-9.5376
-10.2597
-11.7441
-12.8054
-14.7018
-13.8538
-12.518
-5.38797
0.483681
26.2187
23.6463
20.0494
15.4642
10.004
4.15802
-0.131276
-1.62505
-5.00599
-10.8336
-11.6848
-11.9589
-11.5388
-10.7244
-9.78568
-8.97271
-8.9054
-9.32515
-10.5547
-11.4655
-13.0942
-11.773
-9.45363
-2.97426
3.21062
28.6434
26.4401
22.9038
18.0872
12.1591
5.859
0.795687
-0.952163
-4.22868
-10.7765
-12.054
-12.4854
-12.0881
-11.0974
-9.85828
-8.70009
-8.24828
-8.362
-9.29811
-9.98868
-11.2297
-9.39608
-6.36696
-1.14937
5.84698
31.5291
30.0391
26.7824
21.8471
15.6398
8.90393
2.99412
-0.079048
-2.89416
-9.83632
-11.9208
-12.5924
-12.2852
-11.1889
-9.73365
-8.29827
-7.50825
-7.34173
-7.96909
-8.37734
-9.1695
-6.81381
-3.3323
-0.167908
8.7666
34.4177
33.9218
31.2891
26.6099
20.3615
13.3204
6.51528
1.24809
-1.24159
-7.44442
-11.0985
-12.1626
-11.9915
-10.8767
-9.30114
-7.68436
-6.62413
-6.23334
-6.55233
-6.64089
-6.88268
-4.1212
-1.61356
2.18207
11.2344
36.9809
37.9532
36.4064
32.3302
26.2102
18.8691
11.3258
4.55085
-0.0512484
-3.34016
-9.91142
-11.1075
-11.1151
-10.0441
-8.43834
-6.79529
-5.53109
-5.01931
-5.01759
-4.83456
-4.2889
-2.55941
1.02108
4.73573
12.9647
38.644
41.4484
41.3708
38.2361
32.5129
25.0254
16.8655
9.13527
2.60765
-1.24289
-6.34418
-9.18621
-9.53781
-8.65441
-7.03495
-5.60424
-4.14791
-3.72543
-3.32823
-2.89518
-2.37471
-0.309015
3.39159
7.18518
13.8967
38.8204
43.0599
44.3891
42.4328
37.5049
30.3406
22.0095
13.7642
6.60503
0.891706
-2.71216
-6.35021
-7.21164
-6.69371
-5.16624
-4.06303
-2.64014
-2.08757
-1.62239
-1.00178
-0.44137
2.42575
5.13602
9.47289
13.5782
37.1797
41.5273
43.4728
42.5182
38.6861
32.5071
24.8807
17.0263
9.89738
4.07705
0.0079535
-3.16778
-4.36486
-4.22534
-3.15018
-2.10002
-0.990355
-0.517161
0.0960594
0.728983
1.50367
4.78483
6.54924
12.6761
10.6852
33.9262
38.1848
40.2043
39.733
36.7549
31.651
25.1484
18.2782
11.838
6.50839
2.44857
-0.362451
-1.71396
-1.90104
-1.0519
-0.255747
0.634699
0.956759
1.59683
2.19563
3.3085
6.52282
7.94719
14.4151
6.55201
30.723
34.4375
36.0248
35.3903
32.9684
28.6952
23.3216
17.6494
12.2326
7.68648
4.13367
1.72312
0.433288
0.181318
0.734994
1.44118
2.05507
2.18918
2.84425
3.39053
4.86384
7.71306
9.0448
13.3003
3.09008
27.7926
31.0036
32.2805
31.2078
28.6442
24.919
20.4836
15.9238
11.5565
7.84674
4.99529
3.05445
1.91246
1.77404
2.30101
2.79901
3.1669
3.1728
3.80582
4.30983
6.07854
8.40763
9.47783
10.8624
-0.105029
24.0658
26.7049
27.6189
27.0343
24.8428
21.5639
17.7847
14.03
10.4747
7.47693
5.2048
3.73336
2.98956
3.02149
3.41377
3.75537
3.97748
3.8746
4.45683
4.93581
6.87429
8.59724
9.08945
7.67172
-2.68344
20.5782
22.7045
23.3569
22.5831
20.6261
17.8295
14.7315
11.7882
9.05898
6.77179
5.03636
4.01503
3.54252
3.74107
4.09139
4.3581
4.474
4.26055
4.77385
5.22859
7.18609
8.2304
7.86485
4.29909
-4.3553
17.2028
18.8664
19.359
18.6802
16.9885
14.6005
12.0378
9.70875
7.61989
5.88823
4.56418
3.89763
3.7194
4.03601
4.38353
4.59466
4.63592
4.28567
4.72199
5.12276
6.9474
7.25734
5.96263
1.40158
-4.99428
13.9515
15.3548
15.7174
15.1512
13.7328
11.711
9.60606
7.78232
6.20961
4.92846
3.92672
3.51989
3.56063
3.95473
4.32195
4.42484
4.41503
3.86901
4.25045
4.52005
6.09906
5.70137
3.76051
-0.404598
-4.57236
11.149
11.8296
12.4184
11.9903
10.8276
9.12447
7.40777
6.00472
4.83033
3.90437
3.13339
2.90372
3.08235
3.47891
3.84043
3.77644
3.68644
2.91655
3.26949
3.32237
4.66191
3.71784
1.8319
-0.849001
-2.94432
8.4177
9.03986
9.23751
9.13515
8.17623
6.74913
5.35385
4.29058
3.42559
2.75561
2.12301
1.97091
2.19896
2.49975
2.76902
2.49626
2.26852
1.30716
1.65567
1.55706
2.80002
1.88124
1.01481
0.577174
-0.57715
6.2468
6.39798
6.44009
6.36722
5.60211
4.4183
3.30512
2.4723
1.83536
1.31346
0.705541
0.501632
0.670308
0.756348
0.824699
0.365909
-0.0154239
-0.936266
-0.6415
-0.206747
1.06439
1.11738
1.91923
3.05877
3.0582
3.73123
3.64477
3.62145
3.45918
2.87686
1.8542
0.970241
0.217729
-0.296967
-0.781481
-1.52988
-1.92747
-1.91915
-2.1163
-2.22588
-2.58825
-3.00589
-3.55397
-2.35074
-1.49487
1.12433
2.29453
4.47281
6.4643
6.98521
0.730641
0.369048
0.258143
0.0174374
-0.554321
-1.47467
-2.21358
-3.12693
-3.57182
-4.02257
-5.07564
-5.65489
-5.70543
-5.72085
-5.68926
-5.58272
-4.55789
-4.04276
-1.68439
0.295743
3.46607
5.17064
8.37776
9.81793
10.7758
-2.92066
-3.33483
-3.86106
-4.27101
-4.94883
-5.77995
-6.50214
-7.26409
-7.74773
-8.19266
-8.87896
-9.12914
-8.57364
-7.34952
-6.2569
-5.07847
-2.45704
-0.887453
2.46239
4.79534
8.08643
9.57742
11.3035
12.6391
11.8216
-1.13402
-2.29533
-3.49478
-4.28637
-4.86028
-5.25244
-5.47689
-5.55724
-5.44586
-5.20184
-4.78995
-4.10737
-3.17019
-2.19575
-0.988217
0.254441
1.67784
2.55359
3.71996
4.31503
4.92398
5.38717
5.4886
5.84413
5.20354
)
;

boundaryField
{
    inlet
    {
        type            calculated;
        value           uniform 0;
    }
    outlet
    {
        type            calculated;
        value           nonuniform List<scalar> 
57
(
-1.18769
-2.55833
-5.91708
-7.82482
-9.5369
-11.211
-12.8701
-14.5053
-16.0947
-17.7836
-19.5582
-21.1741
-22.627
-23.9161
-25.0279
-25.9848
-26.9233
-27.8534
-28.7046
-29.4375
-30.0229
-30.431
-30.6374
-30.5218
-29.9118
-28.4265
-25.147
-21.4247
-18.1657
-14.6647
-11.0649
-7.61119
-4.56007
-2.28843
0.483681
3.21062
5.84698
8.7666
11.2344
12.9647
13.8967
13.5782
10.6852
6.55201
3.09008
-0.105029
-2.68344
-4.3553
-4.99428
-4.57236
-2.94432
-0.57715
3.0582
6.98521
10.7758
11.8216
5.20354
)
;
    }
    upperWall
    {
        type            calculated;
        value           nonuniform List<scalar> 
223
(
0.000126663
-0.000188866
0.000124817
-0.00094445
-0.000999449
-0.00370852
-0.00428514
-0.0093308
-0.0100614
-0.0181165
-0.0192092
-0.0340704
-0.0257433
-0.0360067
-0.0374488
-0.0875157
-0.0352227
-0.0581769
-0.078131
-0.0809209
-0.0847621
-0.0892357
-0.0975993
-0.10262
-0.109174
-0.113447
-0.119679
-0.125279
-0.13122
-0.13794
-0.14255
-0.150172
-0.152913
-0.161172
-0.161514
-0.17014
-0.168097
-0.176893
-0.172844
-0.181086
-0.17559
-0.182339
-0.17624
-0.180396
-0.174921
-0.175641
-0.172323
-0.169071
-0.169468
-0.161979
-0.167531
-0.156065
-0.167996
-0.153652
-0.172694
-0.157683
-0.183693
-0.171538
-0.203375
-0.198816
-0.234588
-0.243014
-0.280599
-0.307178
-0.344695
-0.393465
-0.429595
-0.503012
-0.537168
-0.634152
-0.666911
-0.781315
-0.815059
-0.934753
-0.973337
-1.08009
-1.12601
-1.1993
-1.245
-1.26768
-1.2908
-1.24397
-1.20217
-1.08144
-0.902463
-0.704912
-0.294206
0.00999786
0.722842
1.28342
2.23551
3.49577
4.36611
7.19965
7.57779
12.791
13.6754
19.7477
27.7615
26.6426
57.1869
58.3293
19.3353
-11.5618
-16.9983
-17.7333
-4.73391
-2.20225
13.4064
7.57142
0.442664
1.32866
3.46277
1.35594
1.66019
2.78059
2.61695
2.06301
2.30095
2.64889
2.87665
3.07195
3.29007
3.21703
2.86995
2.49488
2.10679
1.72755
1.33646
0.966315
0.651829
0.411781
-0.0973769
-0.249932
-0.378312
-0.496338
-0.570182
-0.532224
-0.29559
0.239658
1.17169
2.78031
5.10089
7.32584
10.5992
8.84397
2.71859
-20.9573
-33.6533
-38.1125
-37.7861
-35.0802
-31.3625
-27.0927
-22.4991
-17.7912
-12.8489
-7.20194
-2.29372
0.312151
5.91962
9.45343
13.182
16.5441
19.5711
22.2411
24.2834
25.6984
26.6329
26.8361
26.3331
25.2012
23.4256
21.0934
18.6707
14.0576
-2.27634
-2.87648
-1.76181
-0.62212
0.423835
1.28202
1.91473
2.26661
2.43587
2.51249
2.39898
2.1574
1.85288
1.51789
1.13092
0.699362
0.297504
-0.196845
-0.477964
-0.762606
-0.83469
-0.302144
-1.13402
-2.29533
-3.49478
-4.28637
-4.86028
-5.25244
-5.47689
-5.55724
-5.44586
-5.20184
-4.78995
-4.10737
-3.17019
-2.19575
-0.988217
0.254441
1.67784
2.55359
3.71996
4.31503
4.92398
5.38717
5.4886
5.84413
5.20354
)
;
    }
    lowerWall
    {
        type            calculated;
        value           nonuniform List<scalar> 
250
(
-0.000175156
7.61045e-05
-0.000314784
0.00386213
0.00258771
0.00733254
0.00890737
0.10859
-0.0527454
0.0586321
0.0551822
0.0811621
0.107247
0.131392
0.13057
0.143565
0.628466
0.110073
0.172104
0.304047
0.276689
-0.257623
-0.491679
3.3611
8.02608
0.778257
-2.76825
-5.03982
-7.61164
-9.96274
-12.6731
-15.0712
-16.4782
-16.9404
-16.7453
-15.3719
-13.9065
-11.8985
-10.0369
-7.93028
-6.00924
-4.2019
-2.81678
-1.15576
-0.469359
0.172104
1.01883
2.1637
2.87355
3.07363
3.40323
3.26883
3.32117
3.55672
3.75484
3.67409
3.73868
3.7921
3.46812
2.64452
2.38142
1.90632
1.1592
0.617195
0.23557
-0.0332698
-0.131039
-0.0616259
0.119594
0.377392
0.643821
0.86866
1.0269
1.10793
1.06781
0.906639
0.533061
0.221122
-0.101012
-0.72982
-0.991719
-1.41306
-1.8321
-3.91141
-4.06776
-1.92246
-2.45929
-5.07736
-30.5856
-36.6506
-24.172
-17.5935
-13.0338
-9.94029
-7.26209
-5.35643
-3.58452
-2.25156
-0.97577
0.0231412
0.999575
1.78352
2.55775
3.19219
3.80578
4.31527
4.77488
5.14651
5.43097
5.75281
5.98458
6.20912
6.42459
6.58993
6.77319
6.93329
7.09269
7.2664
7.41717
7.60418
7.7938
8.04326
8.32065
8.68656
8.8536
9.14672
9.5933
10.1616
10.4499
10.7205
11.6299
11.834
12.7074
13.0688
14.0483
14.5004
15.4042
16.1329
17
17.8489
18.7422
19.6099
20.5195
21.3504
22.2269
23.1808
24.0222
24.9893
25.8574
26.8049
27.6837
28.5637
29.4012
30.2015
30.9761
31.6464
32.187
32.5071
32.5981
32.2503
31.7551
30.9114
29.4988
27.2367
25.5661
22.2545
16.6265
7.40352
4.6518
3.3956
3.47982
4.00888
3.7723
4.10204
5.26874
6.51968
7.39617
8.98439
10.8822
12.4405
13.6375
14.618
15.4459
16.1177
16.6263
17.1183
17.2968
17.7786
18.0349
17.9306
18.1887
18.4289
18.501
18.2733
17.7291
16.8962
15.754
14.4072
12.921
11.2963
9.67704
8.1263
6.64966
5.272
4.11298
3.10142
2.35035
1.85116
1.49804
1.5265
1.85709
2.3486
2.83503
3.76163
5.65344
7.98455
9.904
11.0201
9.20479
5.88954
3.08627
1.16142
-0.093554
-0.483318
-1.43761
-0.137489
0.944157
1.60412
1.63565
1.46535
1.22746
0.849068
0.347705
-0.13371
-0.425716
-0.71958
-1.28167
-1.93358
-2.52157
-2.95617
-3.14784
-2.82362
-2.24318
-1.14036
-0.410439
0.813939
1.10447
1.13199
0.705734
-1.18769
)
;
    }
    frontAndBack
    {
        type            empty;
    }
}


// ************************************************************************* //
