/*--------------------------------*- C++ -*----------------------------------*\
| =========                 |                                                 |
| \\      /  F ield         | OpenFOAM: The Open Source CFD Toolbox           |
|  \\    /   O peration     | Version:  2112                                  |
|   \\  /    A nd           | Website:  www.openfoam.com                      |
|    \\/     M anipulation  |                                                 |
\*---------------------------------------------------------------------------*/
FoamFile
{
    version     2.0;
    format      ascii;
    arch        "LSB;label=32;scalar=64";
    class       volScalarField;
    location    "0.06";
    object      ddt0(k);
}
// * * * * * * * * * * * * * * * * * * * * * * * * * * * * * * * * * * * * * //

dimensions      [0 2 -3 0 0 0 0];

internalField   nonuniform List<scalar> 
12885
(
-27.7214
-1844.33
484.122
2099.03
2049.83
1277.65
-3647.11
-4987.36
-992.168
2613.99
4595.47
4571.06
2899.76
-5263.34
-8224.22
-5113.6
-372.732
3909.21
6659.53
7186.35
5195.62
-2109.15
-5927.61
-6650.53
-5573.19
-3334.68
-492.376
2232.88
4160.54
4917.14
4497.53
3269.77
1661.68
68.6649
-1206.17
-2195.81
-2589.61
-2980.38
-2505.58
-2284.21
2.43961
-139.077
41.1206
102.495
129.345
96.9094
-67.8181
-613.629
-295.87
356.531
708.504
653.376
394.428
-133.674
-1753.57
-1745.8
-707.705
689.842
1760.34
2284.61
2014.57
700.442
-917.701
-2144.08
-2686.63
-2513.55
-1734.75
-412.635
1019.87
2148.82
2684.08
2658.64
2172.33
1442.43
641.187
-184.505
-803.2
-1398.27
-1655.25
-1775.59
-0.0619304
-15.9526
-4.49048
7.6991
16.8099
17.5911
2.87107
-22.5022
-19.4424
1.25689
42.1633
28.679
15.976
-9.92849
-70.3795
-212.335
-178.101
4.40864
191.218
333.658
356.527
296.303
145.99
-114.768
-394.769
-626.452
-752.897
-641.056
-355.958
81.1427
475.849
798.891
967.712
983.911
898.155
671.804
415.494
72.4199
-241.971
-585.909
-2.14692
-3.51206
-1.52231
1.6339
5.37298
5.22217
2.46767
-1.53045
-6.58957
-1.29186
6.09654
1.98054e-05
-3.71036
-2.07915
-11.7604
-15.8294
-22.8358
-5.19504
13.334
21.8396
50.9458
41.3989
35.6619
20.5842
-11.7632
-36.9995
-85.8563
-107.808
-111.54
-70.1781
-21.1747
61.2423
115.736
165.936
165.826
203.552
215.465
89.0143
101.49
39.7073
-1.51861
-1.28374
-0.534193
0.730201
2.4434
2.4155
1.23625
-0.908871
-2.79065
-0.739328
0.473811
-0.888384
-0.995173
-0.615103
-3.09311
-4.45013
-4.34147
-2.80817
0.210317
7.82455
12.7099
11.9907
10.6819
10.0983
3.32668
-4.83315
-7.76182
-14.2146
-21.4338
-21.0308
-17.2329
-6.93279
1.80843
11.2098
15.7845
24.4739
28.8477
13.6092
21.7022
30.9984
-0.735985
-0.518866
-0.151948
0.458874
1.30369
1.27845
0.576076
-0.555441
-1.23379
-0.476561
-0.000478619
-0.334441
-0.290136
-0.402643
-1.25794
-1.64826
-1.3145
-0.739295
0.710441
2.89532
4.29133
4.12554
4.1256
3.75439
1.61347
-0.639949
-2.37011
-4.36293
-6.50855
-7.3674
-7.14214
-5.56379
-3.11996
-1.11721
0.910601
2.58346
3.48992
4.49665
5.69888
5.61693
-0.297564
-0.180816
0.0124759
0.320858
0.738543
0.693496
0.278508
-0.282845
-0.539262
-0.263483
-0.0915641
-0.202369
-0.244348
-0.358484
-0.605576
-0.615151
-0.338081
0.0646923
0.712628
1.46785
1.88526
1.82049
1.65615
1.31772
0.585826
-0.234076
-1.00183
-1.79492
-2.53256
-2.92602
-2.90724
-2.60175
-2.04645
-1.37637
-0.65426
-0.0123672
0.558131
1.11097
1.51893
1.72686
-0.107429
-0.0497233
0.0886934
0.219216
0.419708
0.377774
0.146554
-0.120163
-0.22282
-0.13606
-0.103643
-0.182745
-0.248336
-0.298583
-0.315214
-0.20158
0.0261529
0.290456
0.571676
0.799687
0.867297
0.770079
0.607413
0.386937
0.088818
-0.228596
-0.532621
-0.823348
-1.07067
-1.21372
-1.23111
-1.14296
-0.970565
-0.744734
-0.488315
-0.229545
0.0213977
0.252194
0.491314
0.691931
-0.0353949
-0.00185492
0.0872186
0.147265
0.237894
0.207199
0.0866485
-0.0364862
-0.0813964
-0.0697916
-0.0954469
-0.168047
-0.224583
-0.232282
-0.173336
-0.0376369
0.139273
0.303472
0.42067
0.463368
0.418114
0.307974
0.175181
0.0386339
-0.0952244
-0.214779
-0.318379
-0.407481
-0.476014
-0.512104
-0.510013
-0.47293
-0.40746
-0.328377
-0.222625
-0.104554
0.0165889
0.126492
0.226452
0.314352
-0.0106831
0.0102565
0.0619803
0.091376
0.130574
0.11504
0.058129
0.000824453
-0.0218192
-0.0389667
-0.0824792
-0.144339
-0.184242
-0.172099
-0.0995078
0.0191116
0.14756
0.246965
0.293305
0.279056
0.212978
0.117924
0.0191772
-0.0673435
-0.134294
-0.179548
-0.213624
-0.238818
-0.251662
-0.249443
-0.231431
-0.199894
-0.157579
-0.112674
-0.066587
-0.0199705
0.0244833
0.0603261
0.0683847
0.0711316
-0.00297435
0.00953667
0.0372843
0.0510454
0.0660092
0.0662692
0.0453566
0.0203458
0.00144952
-0.0255842
-0.0692717
-0.11701
-0.14204
-0.123719
-0.0599965
0.030728
0.118825
0.178551
0.197109
0.17471
0.121111
0.0515503
-0.0185604
-0.0776575
-0.119227
-0.139725
-0.141624
-0.130759
-0.111959
-0.0887199
-0.0637998
-0.0394437
-0.0173218
0.00295072
0.00954749
0.0054969
-0.00474702
-0.0210569
-0.0420111
-0.0631986
-0.000909502
0.00522738
0.0203026
0.0270725
0.0330802
0.0360074
0.034219
0.0304353
0.0147753
-0.0152728
-0.0592083
-0.102155
-0.121565
-0.100831
-0.0408733
0.0381236
0.108109
0.148236
0.150643
0.120133
0.0684183
0.00927865
-0.0454735
-0.0867962
-0.109594
-0.111801
-0.0912567
-0.0546945
-0.012747
0.0259517
0.0554585
0.0727541
0.0772755
0.069627
0.0498246
0.017503
-0.00615914
-0.0437625
-0.0770266
-0.106981
-0.000845613
0.00196735
0.00865353
0.0126875
0.0159502
0.018028
0.0213686
0.0246397
0.0188857
-0.00509949
-0.045556
-0.0872074
-0.107848
-0.0906358
-0.0358756
0.0370721
0.099824
0.134715
0.131117
0.0949727
0.0397016
-0.0180667
-0.0677385
-0.0995074
-0.108825
-0.0965245
-0.0669093
-0.0271736
0.0145692
0.0510806
0.0770653
0.0896548
0.0895626
0.0797218
0.0571673
0.0290445
-0.00174591
-0.0335398
-0.0637958
-0.0905741
-0.000620378
0.00035756
0.0030904
0.00561239
0.00772227
0.00866795
0.0095337
0.010357
0.00690632
-0.00575807
-0.0271249
-0.048975
-0.0594606
-0.0500164
-0.0205443
0.0219088
0.0473025
0.0781887
0.0800468
0.0612194
0.0262361
0.000623869
-0.0337359
-0.0566083
-0.0648855
-0.0595556
-0.044006
-0.0226685
4.03131e-06
0.0202402
0.0353337
0.0438048
0.0454841
0.0409853
0.0312797
0.0179769
0.00271409
-0.013025
-0.0279367
-0.0408968
-0.000319006
3.60451e-05
0.00120744
0.00255527
0.00346481
0.00312564
0.00212071
5.63724e-05
-0.00247451
-0.0058232
-0.00965815
-0.0125394
-0.0127034
-0.00916929
-0.00250251
0.00551427
0.012146
0.0173792
0.0186575
0.0160993
0.0106521
0.00450327
-0.00212291
-0.00748839
-0.0106506
-0.0115422
-0.0106447
-0.00868238
-0.00638319
-0.00433222
-0.00290829
-0.002273
-0.00239802
-0.00313102
-0.00425051
-0.00549545
-0.00660161
-0.00732728
-0.00746422
-0.00683099
-0.000168022
-0.000170749
0.000159054
0.000603189
0.0007662
0.000189253
-0.000613453
-0.00192333
-0.0021756
-0.00159531
9.42071e-05
0.00232408
0.00415105
0.00469524
0.00357873
0.000985499
-0.00230911
-0.00524395
-0.0069553
-0.00696688
-0.00528096
-0.00237243
0.000981958
0.00402622
0.00615397
0.00699787
0.00646411
0.00470685
0.00205994
-0.00104862
-0.00417647
-0.00692885
-0.00899913
-0.0101885
-0.0104072
-0.00966217
-0.00803753
-0.00567227
-0.00273211
0.000619035
-6.30867e-05
-0.000144129
-0.000112771
1.94979e-05
0.000143637
0.000142718
6.6148e-05
6.29318e-05
0.000297471
0.000824132
0.00158156
0.00230525
0.00261928
0.00223952
0.00108588
-0.000674275
-0.00267134
-0.0044377
-0.00556965
-0.00583312
-0.00522759
-0.00393425
-0.00225543
-0.000525451
0.000964442
0.00201406
0.00253227
0.0025296
0.00209416
0.00136056
0.000479667
-0.000406079
-0.00117989
-0.00175987
-0.00210159
-0.00219603
-0.00206441
-0.00175076
-0.00131374
-0.000817627
-3.35047e-06
7.44841e-06
8.88251e-05
0.000273392
0.000491808
0.000595398
0.000473431
0.000145663
-7.0915e-05
-0.000360683
-0.000489899
-0.000565959
-0.000615122
-0.000621188
-0.000561218
-0.000447843
-0.000345627
-0.000351661
-0.000554875
-0.000996427
-0.00164791
-0.00241282
-0.00315133
-0.00372031
-0.00401265
-0.0039814
-0.00364405
-0.00307106
-0.00236528
-0.00163926
-0.00099602
-0.000514591
-0.000243574
-0.000200555
-0.000376123
-0.000740434
-0.00125085
-0.00185933
-0.00252029
-0.00319582
-3.33331e-05
0.000138274
0.000527698
0.00107949
0.00155046
0.00150458
0.000580242
-0.00115768
-0.0023137
-0.00365802
-0.00392257
-0.00347814
-0.00257884
-0.00147366
-0.000333778
0.000685578
0.00141325
0.00169334
0.00144765
0.000731462
-0.00026575
-0.00131798
-0.00229437
-0.00317538
-0.00399214
-0.00476964
-0.00549877
-0.00613368
-0.00660425
-0.00682451
-0.00679729
-0.00648101
-0.00590658
-0.00513826
-0.00426491
-0.00338696
-0.00260316
-0.00199907
-0.00163929
-0.00156102
-0.000168375
9.61313e-05
0.000798868
0.00180364
0.00276048
0.00286752
0.00122101
-0.00234486
-0.00514567
-0.00835222
-0.00867002
-0.00645062
-0.00280031
0.000597203
0.00242015
0.0022007
0.000422126
-0.00179066
-0.00323333
-0.00312505
-0.00135753
0.001473
0.00428647
0.00589187
0.00548945
0.00292009
-0.00137899
-0.00659909
-0.0118785
-0.0149773
-0.0181375
-0.0186386
-0.0173362
-0.0145418
-0.010751
-0.00653504
-0.00245115
0.00102662
0.00355284
0.00493531
-0.000432108
2.35925e-05
0.000917843
0.00182886
0.00275849
0.00313943
0.00123903
-0.00388183
-0.0109656
-0.0158762
-0.0159544
-0.00980606
0.000450554
0.00927309
0.0118679
0.00697145
-0.00278799
-0.0124497
-0.017239
-0.0148537
-0.00682889
0.00247503
0.0109563
0.0164155
0.0175038
0.0140707
0.00703552
-0.00200806
-0.0112616
-0.0191084
-0.02451
-0.0269118
-0.0263527
-0.023304
-0.018507
-0.012809
-0.00702371
-0.00182887
0.00229589
0.00509628
-0.000390785
0.00192131
0.00327293
0.00168678
-0.00156271
-0.00284359
-0.00351983
-0.00794016
-0.0172691
-0.0265369
-0.0284271
-0.0174514
0.000986932
0.0176389
0.0243842
0.0186376
0.00373016
-0.0131469
-0.0243496
-0.0254552
-0.017639
-0.00257007
0.0151886
0.0301928
0.0382796
0.0376509
0.0288604
0.0142775
-0.00281028
-0.0191771
-0.0323818
-0.0410554
-0.0448585
-0.0442523
-0.0401956
-0.0338514
-0.0263551
-0.0186586
-0.0114459
-0.00510414
0.00192138
0.0135267
0.0188105
0.0101718
-0.0129556
-0.0257806
-0.0227529
-0.0158422
-0.0177574
-0.0301848
-0.0413045
-0.034664
-0.00886866
0.0247998
0.0502536
0.0548175
0.0349185
-0.0013445
-0.0380604
-0.0604823
-0.061073
-0.0379373
-0.00146525
0.0375848
0.0695985
0.0873776
0.0875825
0.0716832
0.0449621
0.0138281
-0.0165572
-0.0428388
-0.0631884
-0.0771241
-0.085157
-0.0882752
-0.0875572
-0.0839076
-0.0779835
-0.0702232
0.0109126
0.0517913
0.0743165
0.0593853
-0.0321308
-0.0907774
-0.0827588
-0.0362981
0.00359459
0.00274627
-0.0371896
-0.0685452
-0.051424
0.00855629
0.0830761
0.131217
0.116501
0.0386857
-0.0623966
-0.139121
-0.171981
-0.160439
-0.110551
-0.0296396
0.0696473
0.16635
0.235888
0.264272
0.256221
0.224226
0.174173
0.109345
0.0363976
-0.0390391
-0.114274
-0.186746
-0.253474
-0.310421
-0.353299
-0.384025
0.0147028
0.189318
0.223729
0.210755
-0.0677788
-0.263582
-0.251381
-0.097753
0.0800786
0.157967
0.0595868
-0.11303
-0.194032
-0.147438
0.036404
0.274866
0.370977
0.238766
-0.0241221
-0.248832
-0.417683
-0.538891
-0.574149
-0.462646
-0.184721
0.225692
0.635848
0.905639
1.0442
1.1161
1.07824
0.885324
0.595708
0.267574
-0.0873934
-0.446374
-0.78208
-1.06814
-1.2285
-1.374
-0.0403768
0.484884
0.589964
0.68449
-0.15352
-0.739144
-0.697476
-0.253766
0.277408
0.622486
0.452767
-0.0981279
-0.486629
-0.686085
-0.373898
0.572333
1.14444
0.831605
0.00350515
-0.483705
-0.886625
-1.49878
-2.13788
-2.28921
-1.76596
-0.190703
1.88398
3.02494
3.5889
4.42774
4.88922
4.19031
3.04836
1.98296
0.627419
-1.00491
-2.46512
-3.72777
-5.08381
-6.25759
-0.486885
1.22581
1.5662
2.2865
-0.552039
-2.3787
-1.92175
-0.348818
0.929226
1.93624
1.78908
-0.0650226
-1.32453
-2.30267
-2.01445
2.2444
5.40829
3.27926
0.140911
-2.83338
-4.2415
-7.38328
-11.0363
-11.4734
-8.72232
-2.48732
14.881
17.0215
15.9631
20.4091
24.5478
16.275
5.51862
1.84175
-2.95019
-13.1836
-18.6418
-22.8915
-26.3666
-28.7072
-3.30067
4.27777
5.64993
8.98181
-3.05781
-11.9038
-6.36246
4.25155
5.61234
7.68481
9.35324
-3.44522
-16.6308
-17.1151
-2.88594
4.98721
51.7794
25.1238
13.7521
-0.128051
-24.7952
-66.7503
-105.696
-120.529
-72.8081
29.0493
130.259
174.694
178.588
169.225
142.629
72.5044
-15.2372
-97.6151
-161.911
-201.658
-230.216
-249.696
-254.805
-235.512
-28.426
35.6764
49.8755
34.8262
-24.6324
-185.078
-1.53314
125.048
142.796
118.691
33.4833
-90.8612
-615.869
-438.955
58.8617
536.56
735.849
649.169
416.588
126.877
-944.724
-1247.54
-1238.39
-974.081
-354.889
609.987
1511.44
1875.74
1778.25
1479.87
538.433
-484.261
-1177.03
-1575.55
-1748.84
-1747.77
-1627.63
-1392.85
-982.208
-395.888
-559.57
781.814
1400.8
742.447
-2375.27
-2308.63
-357.752
1449.41
2347.54
2265.1
1493.86
-2562
-4949.1
-2818.6
-71.9639
2355.18
3932.65
4402.08
3615.55
1076.24
-6168.73
-6373.66
-4952.95
-2563.25
105.388
2589.98
4623.93
6014.7
6221.93
4339.24
551.406
-2423.43
-4419.14
-5371.78
-5432.43
-4806.15
-3670.83
-2213.19
-629.136
936.03
-3.26473
-3.2786
-3.30903
-3.3578
-3.42687
-3.51713
-3.62708
-3.75185
-3.90622
-4.1239
-4.36982
-4.64705
-4.95899
-5.30608
-5.68872
-6.10742
-6.56127
-7.04968
-7.57182
-8.12643
-8.71152
-9.32322
-9.95698
-10.6074
-11.2682
-11.9327
-12.5893
-13.2377
-13.8587
-14.4447
-15.0573
-15.5247
-15.8817
-16.3139
-16.5507
-16.7229
-16.7433
-16.6085
-16.3004
-15.7972
-15.077
-14.1342
-12.9919
-11.6887
-10.3106
-8.70251
-7.56907
-6.48081
-6.02456
-5.45007
-6.1197
-7.35964
-5.12
0.0450171
0.684036
0.485058
-2.97695
-7.27893
-12.6469
-21.019
-33.4538
-49.8413
-69.3294
-90.749
-112.871
-135.013
-157.285
-179.297
-201.594
-223.171
-243.747
-263.53
-282.353
-300.289
-317.278
-333.32
-348.392
-362.457
-375.472
-387.382
-398.123
-407.621
-415.798
-422.579
-427.883
-431.631
-433.758
-434.19
-432.849
-429.745
-424.872
-417.749
-408.685
-401.04
-383.809
-368.59
-359.307
-338.432
-319.607
-299.06
-275.465
-254.182
-230.119
-206.19
-181.623
-157.02
-132.505
-108.389
-84.9827
-62.4436
-41.0681
-21.0918
-2.69924
13.9695
29.2711
42.8034
54.5259
65.5916
75.5926
86.1618
97.8171
110.723
127.477
148.103
169.153
186.162
202.297
207.73
205.729
201.734
195.886
160.363
41.7498
2.61291
-21.1126
-46.0005
-78.3797
-115.932
-152.695
-198.752
-252.185
-297.598
-355.127
-416.678
-459.881
-502.722
-545.067
-582.078
-612.379
-636.114
-653.177
-663.208
-665.973
-659.836
-645.244
-625.849
-599.328
-561.022
-519.278
-477.835
-417.829
-348.362
-302.891
-237.246
-114.879
-66.9253
-4.54087
88.4851
174.896
256.803
336.9
413.416
486.009
552.702
614.717
668.642
710.026
739.299
777.88
763.756
-3.25159
-3.26306
-3.29011
-3.33426
-3.39729
-3.4801
-3.58227
-3.70286
-3.84688
-4.02601
-4.23176
-4.46011
-4.71008
-4.97961
-5.26613
-5.56696
-5.87704
-6.19285
-6.51111
-6.82866
-7.14301
-7.45084
-7.75026
-8.04032
-8.32033
-8.59026
-8.84631
-9.10253
-9.33242
-9.55671
-9.8132
-9.97758
-10.1434
-10.3683
-10.4958
-10.6436
-10.7082
-10.7278
-10.6704
-10.5256
-10.2636
-9.86362
-9.32077
-8.63624
-7.84688
-6.85229
-5.99413
-5.16049
-4.69681
-3.93794
-4.48881
-6.20905
-5.28489
-1.83722
-1.75624
-3.6413
-8.14703
-13.1831
-18.737
-26.1708
-35.88
-47.4047
-59.9728
-72.8766
-85.5576
-97.8723
-110.002
-122.198
-133.606
-144.406
-154.539
-164.138
-173.123
-181.547
-189.379
-196.618
-203.247
-209.245
-214.585
-219.234
-223.157
-226.317
-228.679
-230.211
-230.881
-230.652
-229.507
-227.423
-224.358
-220.379
-215.477
-209.239
-202.085
-193.928
-186.824
-175.683
-167.575
-155.518
-144.351
-132.128
-119.391
-108.104
-95.0529
-82.8742
-70.6874
-58.9371
-47.6724
-37.088
-27.3749
-18.6078
-10.9936
-4.57446
0.565191
4.23684
7.00082
8.66995
8.76866
8.56222
7.47475
7.60483
9.02529
11.5272
18.7427
31.0454
49.7458
68.7243
94.7436
117.817
136.548
151.339
157.275
138.797
49.4138
40.4999
48.4404
50.3105
41.9869
25.8222
7.24149
-14.9768
-48.3617
-72.0039
-102.172
-139.424
-168.949
-197.979
-228.382
-255.402
-278.378
-298.251
-314.687
-327.214
-335.475
-338.549
-336.52
-332.025
-323.45
-307.121
-288.69
-271.8
-242.569
-205.774
-187.204
-157.117
-88.9158
-63.1885
-26.4501
9.21795
62.8153
110.727
155.417
198.89
240.979
280.549
318.637
353.438
380.561
404.848
433.074
444.734
-3.22198
-3.22846
-3.25057
-3.28956
-3.34724
-3.42477
-3.5225
-3.64074
-3.7811
-3.94679
-4.13446
-4.3436
-4.57055
-4.81182
-5.06367
-5.32363
-5.58319
-5.83939
-6.08799
-6.32526
-6.54915
-6.75495
-6.94158
-7.10932
-7.25823
-7.38935
-7.49785
-7.61485
-7.67774
-7.75937
-7.86203
-7.91199
-7.94045
-8.00878
-8.03756
-8.09332
-8.09844
-8.10785
-8.07089
-8.00946
-7.88621
-7.68485
-7.38829
-6.98133
-6.47368
-5.7793
-4.91125
-4.15549
-3.65046
-2.76227
-3.16437
-5.07451
-5.22548
-3.25004
-3.33108
-5.9856
-10.8337
-15.9618
-21.2718
-27.8227
-35.716
-44.4311
-53.34
-62.0404
-70.2992
-78.16
-85.738
-93.0908
-99.7944
-106.012
-111.804
-117.208
-122.187
-126.777
-130.956
-134.719
-138.056
-140.948
-143.378
-145.324
-146.765
-147.68
-148.055
-147.878
-147.131
-145.798
-143.876
-141.377
-138.262
-134.63
-130.414
-125.314
-118.741
-114.754
-108.611
-101.586
-94.6262
-87.3956
-80.0289
-72.1287
-64.5814
-57.8616
-50.2078
-43.4633
-36.9279
-30.8867
-25.3581
-20.4579
-16.2751
-12.799
-10.256
-8.44719
-7.38887
-7.57076
-8.16647
-8.97828
-11.2296
-13.375
-15.9392
-17.7076
-18.4573
-17.8598
-13.4439
-4.73784
12.2576
29.3829
55.6526
83.0059
107.627
128.061
136.895
122.79
55.7671
58.1196
73.3
80.4775
76.9107
66.3754
54.4655
39.0823
18.451
3.74524
-10.7893
-36.4278
-53.6494
-72.5936
-95.395
-115.897
-133.404
-150.424
-165.98
-179.392
-189.652
-196.765
-200.3
-202.404
-201.783
-195.313
-186.755
-180.205
-164.852
-142.321
-134.272
-116.717
-75.7679
-57.0773
-33.142
-11.3454
14.24
53.636
82.4511
111.914
140.341
168.031
195.278
221.51
241.154
263.039
283.617
302.88
-3.16917
-3.16618
-3.18025
-3.21228
-3.26395
-3.33638
-3.42999
-3.54496
-3.68201
-3.8421
-4.02444
-4.22539
-4.44196
-4.67031
-4.90543
-5.13871
-5.374
-5.60372
-5.82253
-6.02608
-6.21404
-6.37869
-6.52147
-6.64232
-6.74073
-6.81812
-6.86474
-6.92513
-6.94516
-6.9605
-6.9785
-6.97655
-6.9537
-6.94117
-6.91117
-6.89483
-6.85029
-6.8155
-6.75024
-6.69286
-6.59544
-6.46423
-6.27247
-6.00352
-5.64692
-5.12016
-4.27507
-3.52228
-2.95303
-1.99512
-2.28543
-4.15359
-5.06163
-4.33947
-4.84748
-7.82279
-12.7427
-17.7198
-22.7304
-28.57
-35.1226
-41.8891
-48.3676
-54.3734
-59.846
-64.9159
-69.6433
-74.0706
-78.084
-81.7044
-85.0795
-88.1846
-90.9912
-93.5349
-95.7891
-97.7487
-99.4059
-100.748
-101.76
-102.428
-102.737
-102.679
-102.256
-101.466
-100.287
-98.7465
-96.8102
-94.5049
-91.8546
-88.9266
-85.5058
-81.6829
-77.469
-74.0306
-69.0924
-65.7635
-60.1966
-55.9474
-51.2168
-46.4778
-42.1157
-38.1657
-33.8706
-30.2125
-26.7997
-23.7462
-21.0604
-18.7985
-16.9797
-15.5167
-14.8046
-14.3586
-14.2331
-14.8437
-15.5932
-16.5943
-18.334
-19.9405
-21.7281
-23.0105
-23.5188
-22.7877
-19.1821
-11.8778
0.739678
17.6381
38.677
64.8898
89.4801
110.053
118.182
107.139
59.8067
66.4428
81.2642
87.5435
84.5596
76.2515
67.6615
56.7475
43.8355
35.442
26.3456
11.8819
4.0646
-7.06212
-23.1458
-37.3933
-48.5299
-61.7429
-74.9103
-87.6449
-97.6359
-106.46
-113.018
-119.078
-123.292
-123.048
-120.669
-120.535
-114.167
-100.98
-98.6496
-88.9235
-65.6301
-51.831
-36.7728
-21.8537
-4.01494
14.4641
41.1106
62.3279
82.0725
102.594
123.506
144.711
159.504
180.253
195.634
217.872
-3.08515
-3.06556
-3.06747
-3.0903
-3.13575
-3.2044
-3.29634
-3.41132
-3.54912
-3.70934
-3.89053
-4.08988
-4.3038
-4.52839
-4.75943
-4.99351
-5.22208
-5.44181
-5.64914
-5.83833
-6.00044
-6.14647
-6.27208
-6.376
-6.45381
-6.50057
-6.55004
-6.57471
-6.58069
-6.57569
-6.56415
-6.54082
-6.50303
-6.46263
-6.41187
-6.36333
-6.29837
-6.23479
-6.15053
-6.07278
-5.96694
-5.8507
-5.69041
-5.48525
-5.20547
-4.79451
-3.97839
-3.178
-2.54746
-1.58604
-1.9137
-3.58343
-4.94948
-5.23957
-6.29929
-9.63308
-14.215
-18.9788
-23.8966
-29.1508
-34.5613
-39.7465
-44.3505
-48.3739
-51.8494
-54.9888
-57.8224
-60.4644
-62.8772
-64.9887
-66.9885
-68.8248
-70.4602
-71.9298
-73.1939
-74.2528
-75.1019
-75.7286
-76.1226
-76.271
-76.1617
-75.8041
-75.2102
-74.3733
-73.2718
-71.9692
-70.4035
-68.5388
-66.5572
-64.3765
-61.9258
-59.2613
-56.4994
-53.8899
-51.0952
-48.2837
-44.9637
-42.3289
-39.3822
-36.639
-34.013
-31.5672
-29.0396
-26.8501
-24.8428
-23.0305
-21.4266
-20.0632
-18.9457
-18.0381
-17.4914
-17.1188
-16.9721
-17.1341
-17.3585
-17.7768
-18.5419
-19.1634
-19.8265
-20.1235
-19.8084
-18.4733
-14.9763
-8.65191
1.61362
16.1682
33.1925
55.9202
77.3204
94.9589
101.046
92.0657
61.4109
68.5269
80.2562
84.9426
82.7195
76.9465
71.1427
63.9214
56.1434
51.3188
45.8693
37.0594
32.2583
26.3882
16.5128
7.78969
2.37391
-7.16235
-17.0553
-27.8184
-35.4656
-43.7355
-51.2816
-58.8987
-65.4164
-68.6281
-70.5576
-74.2045
-73.9748
-67.8488
-68.8421
-64.9681
-53.5816
-44.6307
-35.782
-26.2297
-14.6565
-1.02189
10.8748
30.2457
44.0086
60.4987
76.7527
94.0617
105.425
125.277
136.973
160.237
-2.9585
-2.91319
-2.89964
-2.91354
-2.9556
-3.02551
-3.12251
-3.24547
-3.39301
-3.56338
-3.75416
-3.96195
-4.18234
-4.41137
-4.64433
-4.87639
-5.10148
-5.31599
-5.51571
-5.69778
-5.86183
-6.00216
-6.12078
-6.21675
-6.27025
-6.3324
-6.36386
-6.37821
-6.37755
-6.36595
-6.34489
-6.31263
-6.2739
-6.23073
-6.18191
-6.13123
-6.07084
-6.00612
-5.92597
-5.84199
-5.73625
-5.61348
-5.49211
-5.31168
-5.0584
-4.63244
-3.85933
-3.09326
-2.3842
-1.483
-1.96258
-3.41884
-5.02931
-6.11783
-7.80538
-11.3353
-15.9682
-20.5187
-24.8501
-29.6016
-33.9391
-37.6516
-40.6961
-43.2251
-45.2965
-47.2026
-48.9272
-50.6179
-52.2185
-53.595
-54.9227
-56.176
-57.3044
-58.3258
-59.1856
-59.9004
-60.4641
-60.8649
-61.0938
-61.1287
-60.9731
-60.6616
-60.1919
-59.5465
-58.7373
-57.7595
-56.6183
-55.2899
-53.8473
-52.2926
-50.6118
-48.7787
-46.8952
-45.0242
-43.1875
-41.0718
-38.9644
-37.1269
-35.1358
-33.2451
-31.4159
-29.6547
-27.8911
-26.2833
-24.7895
-23.385
-22.0832
-20.9079
-19.8611
-18.932
-18.1709
-17.5148
-16.9919
-16.5687
-16.1796
-15.9041
-15.7799
-15.4666
-15.1054
-14.4265
-13.2304
-11.2781
-7.63795
-1.75188
7.19604
18.6632
32.7994
51.2612
68.5737
82.0288
85.9787
78.9663
61.5065
67.8452
76.6358
80.565
79.6666
76.3798
72.9079
68.4797
64.0004
61.2928
58.0726
53.0807
50.2297
47.1471
41.3592
35.154
31.0176
24.93
19.5379
10.7451
6.26267
-0.343859
-8.18392
-15.191
-22.1253
-26.1875
-30.4594
-35.9595
-39.4997
-38.4364
-41.2091
-41.6299
-38.2312
-33.8984
-29.6787
-24.9914
-17.7876
-11.3081
-0.854432
7.21657
18.2123
32.1975
44.2806
58.1338
66.7204
85.1561
94.6119
117.226
-2.77193
-2.70307
-2.6838
-2.69895
-2.74862
-2.83297
-2.94945
-3.09547
-3.26788
-3.4631
-3.67707
-3.90503
-4.14097
-4.38125
-4.62024
-4.85296
-5.07544
-5.28362
-5.47321
-5.64313
-5.79219
-5.91923
-6.02946
-6.09228
-6.15893
-6.21296
-6.23304
-6.24048
-6.23532
-6.22072
-6.19731
-6.16696
-6.13305
-6.09793
-6.06376
-6.02707
-5.98511
-5.93857
-5.88057
-5.81314
-5.72514
-5.61484
-5.45911
-5.28185
-5.04814
-4.67755
-3.92961
-3.18805
-2.39785
-1.68003
-2.31269
-3.65543
-5.41023
-7.13474
-9.46546
-13.207
-17.6907
-22.0234
-26.0795
-29.9271
-33.1736
-35.7924
-37.7926
-39.4078
-40.7283
-42.0132
-43.2436
-44.5726
-45.8706
-47.0211
-48.1094
-49.1678
-50.1737
-51.0812
-51.8413
-52.4874
-53.0086
-53.3956
-53.6383
-53.6628
-53.5983
-53.4335
-53.1214
-52.6737
-52.0944
-51.3943
-50.5464
-49.5809
-48.4896
-47.3222
-46.0766
-44.7189
-43.2995
-41.8397
-40.3963
-38.7588
-37.1263
-35.5652
-33.9527
-32.3867
-30.8428
-29.3165
-27.7961
-26.3407
-24.9475
-23.5847
-22.2591
-20.991
-19.7802
-18.6281
-17.5508
-16.5137
-15.5694
-14.6053
-13.651
-12.7324
-11.8914
-10.7774
-9.55651
-8.03851
-6.05796
-3.64925
0.11795
5.79825
14.0865
22.1498
34.456
48.691
61.8871
71.3641
74.0928
69.5016
61.7255
67.3445
74.1089
77.8801
78.3172
77.1211
75.4868
73.0834
70.7652
69.4385
67.6234
64.7399
63.0568
61.3901
57.965
54.138
50.9477
47.024
42.3598
36.0948
32.8932
27.9221
22.5982
15.9636
9.11216
6.01576
0.516297
-4.97735
-10.5964
-12.4248
-15.891
-19.1118
-20.6831
-20.076
-19.2653
-18.4547
-15.5778
-12.8821
-8.21194
-2.10549
4.84034
10.5062
21
32.3278
38.6454
54.0059
62.9135
82.9062
-2.69316
-2.57371
-2.54022
-2.56263
-2.63396
-2.7513
-2.90713
-3.09529
-3.30951
-3.54337
-3.79075
-4.04544
-4.30189
-4.55388
-4.79585
-5.02358
-5.23275
-5.42156
-5.58961
-5.73608
-5.86018
-5.95995
-6.04488
-6.09105
-6.14419
-6.16773
-6.17464
-6.16842
-6.15189
-6.1281
-6.09965
-6.07092
-6.04047
-6.01193
-5.98538
-5.96112
-5.93802
-5.91445
-5.88486
-5.84454
-5.78478
-5.6991
-5.58203
-5.41544
-5.1967
-4.83892
-4.11469
-3.41855
-2.56007
-2.15118
-2.93594
-4.28588
-6.17851
-8.44196
-11.3877
-15.3295
-19.5423
-23.4088
-26.8427
-29.5903
-31.5006
-32.8934
-33.9975
-35.1186
-36.264
-37.5512
-38.9163
-40.4148
-41.9012
-43.2637
-44.5051
-45.6702
-46.8202
-47.8281
-48.6737
-49.398
-49.9914
-50.4511
-50.7836
-51.0488
-51.1321
-51.0634
-50.8242
-50.5132
-50.0375
-49.4622
-48.757
-47.9458
-47.0181
-46.0117
-44.9329
-43.7638
-42.5208
-41.2169
-39.8919
-38.4546
-36.9854
-35.5129
-34.0196
-32.5173
-31.008
-29.4903
-27.9682
-26.4678
-24.9958
-23.5232
-22.0445
-20.5779
-19.1191
-17.6731
-16.2599
-14.8028
-13.4334
-11.991
-10.5257
-9.02644
-7.61572
-5.8399
-3.89754
-1.68649
0.963997
3.64116
7.35173
13.356
19.7761
26.8007
36.5178
47.3581
57.1995
63.8582
66.7964
65.0084
63.7021
68.9041
74.3645
78.1027
79.4977
79.8648
79.589
78.5984
77.7162
77.3113
76.4005
74.7014
73.668
72.6962
70.6026
68.0848
65.5538
62.7101
59.1683
54.7343
50.9198
46.7329
43.567
37.849
32.4729
28.468
23.6372
18.8212
12.3182
9.58876
5.93922
0.904453
-3.24403
-4.92451
-6.26743
-8.48579
-8.85479
-8.79862
-8.41902
-5.06579
-3.24136
0.71143
8.16629
12.1181
18.7774
28.7065
40.1297
55.0077
-2.95565
-2.76326
-2.70893
-2.74376
-2.84439
-3.00681
-3.21072
-3.44644
-3.70403
-3.97429
-4.24875
-4.51884
-4.77775
-5.01949
-5.24144
-5.44189
-5.62044
-5.77628
-5.90888
-6.01838
-6.10531
-6.15415
-6.20937
-6.23237
-6.24011
-6.2309
-6.20806
-6.17511
-6.13536
-6.0921
-6.04857
-6.00828
-5.97334
-5.94682
-5.92618
-5.91374
-5.90828
-5.90757
-5.90611
-5.89704
-5.87152
-5.82097
-5.73694
-5.60095
-5.39665
-5.04979
-4.37686
-3.74267
-2.87402
-2.89649
-3.84214
-5.30556
-7.4117
-10.1676
-13.6397
-17.67
-21.352
-24.5314
-26.979
-28.545
-29.7194
-30.771
-31.8858
-33.2417
-34.754
-36.4257
-38.1737
-39.9834
-41.741
-43.332
-44.7657
-46.0988
-47.3426
-48.4214
-49.3223
-50.0781
-50.6874
-51.1519
-51.4779
-51.6817
-51.7575
-51.6849
-51.4738
-51.154
-50.6856
-50.1211
-49.4318
-48.6346
-47.7294
-46.7366
-45.6664
-44.5138
-43.2846
-41.9906
-40.6535
-39.2404
-37.7724
-36.2669
-34.727
-33.1545
-31.5528
-29.9216
-28.2697
-26.6145
-24.9661
-23.3042
-21.6071
-19.8907
-18.1496
-16.369
-14.6231
-12.6967
-10.8617
-8.9988
-7.05693
-5.01673
-3.10422
-0.844646
1.73555
4.53836
7.71204
10.716
14.3784
19.6019
25.7194
31.7196
39.1834
47.4992
55.4787
60.7202
65.1754
66.1305
68.5789
73.4412
77.9827
81.5673
83.4688
84.8643
85.5055
85.4913
85.542
85.7004
85.3283
84.3025
83.4963
82.8059
81.3741
79.4877
77.3268
74.9336
71.9691
68.5163
65.0608
61.3847
57.9068
53.4886
49.0936
44.9219
40.607
36.1451
30.5571
26.4193
22.5109
18.2271
12.3171
9.86989
7.11836
2.54053
0.454991
-1.26676
-3.68012
-3.14275
-4.43215
-2.72382
-0.0262195
2.03842
5.40968
15.0364
21.5521
30.5682
-3.99916
-3.6346
-3.50417
-3.51398
-3.62384
-3.78914
-4.01254
-4.26549
-4.5328
-4.8007
-5.05809
-5.29975
-5.52255
-5.72513
-5.90574
-6.06297
-6.19578
-6.3037
-6.38679
-6.44689
-6.47611
-6.49797
-6.49242
-6.46948
-6.43113
-6.37947
-6.31752
-6.24872
-6.17675
-6.10538
-6.03846
-5.97983
-5.93262
-5.89984
-5.88139
-5.87527
-5.88325
-5.9019
-5.92475
-5.94396
-5.95037
-5.93424
-5.88459
-5.7838
-5.60673
-5.2714
-4.71233
-4.05359
-3.43393
-3.91395
-5.06944
-6.76996
-9.18346
-12.3694
-16.0973
-19.7497
-22.7356
-24.9917
-26.3087
-27.3083
-28.3612
-29.6517
-31.2419
-33.1442
-35.2266
-37.4206
-39.6389
-41.8093
-43.8434
-45.6868
-47.3441
-48.8477
-50.1665
-51.2944
-52.2244
-52.9775
-53.5621
-53.9849
-54.2538
-54.3785
-54.3675
-54.219
-53.9447
-53.5441
-53.0143
-52.3809
-51.6264
-50.7603
-49.7865
-48.7184
-47.5661
-46.3309
-45.0181
-43.64
-42.2082
-40.7127
-39.1542
-37.5377
-35.8678
-34.1475
-32.3767
-30.5522
-28.6825
-26.7835
-24.8739
-22.9469
-20.9715
-18.9595
-16.9263
-14.762
-12.7015
-10.2447
-7.80938
-5.59051
-3.19842
-0.614413
1.92002
4.33392
7.54332
10.9383
14.6365
17.7283
21.476
26.0838
32.0244
37.6861
43.5405
50.0218
58.0475
62.9388
68.1793
72.0284
76.7205
81.1503
84.8457
88.1282
90.3515
92.2113
93.4778
94.2112
94.7933
95.1918
95.0343
94.34
93.9083
93.283
91.9394
90.1433
87.9915
85.5901
82.7449
79.6316
76.3511
72.5903
68.5972
64.8693
60.9806
56.8902
52.8547
48.6867
43.9265
39.4159
35.2872
31.2666
25.7665
21.7884
18.7862
13.2765
10.2688
7.92037
3.31115
1.99649
-1.13202
-1.67493
-2.03905
-2.12436
-1.05556
3.91391
7.64281
15.343
-6.15071
-5.36771
-5.01705
-4.89615
-4.92353
-5.04799
-5.21074
-5.41758
-5.63149
-5.84141
-6.04149
-6.22677
-6.3935
-6.53879
-6.66066
-6.75798
-6.83062
-6.87856
-6.89891
-6.90661
-6.88576
-6.84608
-6.78883
-6.71635
-6.63115
-6.53606
-6.43428
-6.32938
-6.22526
-6.12605
-6.03598
-5.95925
-5.8995
-5.85976
-5.842
-5.84145
-5.86102
-5.89696
-5.94085
-5.98432
-6.018
-6.03144
-6.01244
-5.94354
-5.79619
-5.49272
-5.07857
-4.43502
-4.32031
-5.213
-6.7064
-8.75999
-11.5469
-15.024
-18.6249
-21.5556
-23.4653
-24.5557
-25.4209
-26.4877
-27.9648
-29.8743
-32.1542
-34.7116
-37.4082
-40.1386
-42.8056
-45.3208
-47.6384
-49.7404
-51.6137
-53.241
-54.6339
-55.7911
-56.7216
-57.4424
-57.9693
-58.3149
-58.4894
-58.5027
-58.366
-58.0893
-57.6867
-57.1572
-56.5186
-55.7628
-54.894
-53.9084
-52.81
-51.6107
-50.3197
-48.9386
-47.472
-45.934
-44.3347
-42.6746
-40.951
-39.1591
-37.2984
-35.3714
-33.3725
-31.2888
-29.1238
-26.8877
-24.6149
-22.3107
-19.9677
-17.5853
-15.2752
-12.6351
-10.274
-7.32941
-3.96767
-1.47569
1.74263
4.61306
7.39158
10.4941
14.0264
18.009
22.6084
25.9906
29.6256
33.7958
39.5699
46.0712
51.2034
56.3485
64.4337
70.5382
75.7668
82.486
88.3244
92.3532
95.231
98.1632
100.998
104.178
105.766
106.894
107.563
107.808
107.436
106.586
104.735
102.599
100.941
98.9296
96.5552
93.9209
90.9442
87.8014
84.409
80.8042
77.2428
73.4787
69.6414
65.5932
61.6258
57.541
53.2621
48.8098
44.598
40.6492
35.7181
31.403
27.8229
22.7015
19.3064
14.9496
10.9833
8.85076
4.31714
2.194
0.00747076
-1.8247
-2.59488
-1.23807
0.388476
4.71845
-9.38678
-7.76753
-6.98
-6.5912
-6.4428
-6.43746
-6.51201
-6.61472
-6.74743
-6.88446
-7.01475
-7.13084
-7.22786
-7.30325
-7.35479
-7.3813
-7.38489
-7.36795
-7.32569
-7.26353
-7.18306
-7.08654
-6.97644
-6.85551
-6.7267
-6.59321
-6.45844
-6.32607
-6.19996
-6.08415
-5.98275
-5.89977
-5.83876
-5.80254
-5.79234
-5.80503
-5.84135
-5.89599
-5.96063
-6.02638
-6.08344
-6.12115
-6.12738
-6.08634
-5.97488
-5.75648
-5.38759
-5.08359
-5.59542
-6.92794
-8.85551
-11.3268
-14.3973
-17.7597
-20.6133
-22.3819
-23.1974
-23.8658
-24.9609
-26.6016
-28.8088
-31.4766
-34.474
-37.6767
-40.9473
-44.1618
-47.2293
-50.0935
-52.7227
-55.058
-57.1135
-58.8665
-60.3304
-61.5113
-62.426
-63.096
-63.5443
-63.7901
-63.8466
-63.7242
-63.4339
-62.9917
-62.417
-61.7224
-60.9199
-60.0062
-58.9832
-57.8403
-56.5771
-55.2044
-53.7317
-52.1547
-50.4716
-48.6976
-46.8477
-44.928
-42.9447
-40.8944
-38.7767
-36.5811
-34.2968
-31.8932
-29.361
-26.6884
-23.9317
-21.0573
-18.1954
-15.2741
-12.7843
-9.5262
-6.56923
-3.4054
0.430854
4.18815
8.25455
11.5899
14.8398
18.3379
22.1711
26.6029
32.8049
36.7386
40.5287
44.377
49.7005
57.0148
63.0879
68.7671
75.828
83.9102
91.997
100.125
106.33
110.386
112.923
115.616
118.314
117.63
118.641
119.527
119.947
119.806
119.007
117.602
115.984
114.253
111.889
109.135
106.01
102.657
99.0257
95.4334
91.6152
87.7082
83.7156
79.6776
75.6445
71.4359
67.3424
63.2344
59.0655
54.7858
50.6063
46.6377
42.1887
37.9786
34.0215
29.5676
25.7392
21.4348
17.9334
12.7939
10.6499
7.31625
4.24407
1.00258
-1.05171
-2.04207
-1.94404
-0.972928
-13.425
-10.4682
-9.04017
-8.28762
-7.91142
-7.74685
-7.70236
-7.72316
-7.77015
-7.83031
-7.88241
-7.91946
-7.93491
-7.93296
-7.90577
-7.85282
-7.77701
-7.68001
-7.56379
-7.43087
-7.28416
-7.12684
-6.96239
-6.79441
-6.62663
-6.46277
-6.30649
-6.16138
-6.03093
-5.91853
-5.82741
-5.76047
-5.7201
-5.7079
-5.7229
-5.76423
-5.82843
-5.90912
-5.99839
-6.0871
-6.1657
-6.22449
-6.25352
-6.24316
-6.19007
-6.05206
-5.88954
-6.21482
-7.33195
-9.17377
-11.5481
-14.2983
-17.231
-19.7936
-21.4583
-22.1856
-22.5973
-23.6324
-25.4329
-27.8847
-30.8891
-34.2896
-37.9371
-41.7118
-45.4764
-49.1287
-52.6051
-55.8112
-58.721
-61.2963
-63.5333
-65.4207
-66.9648
-68.1747
-69.0697
-69.6784
-70.0341
-70.164
-70.0862
-69.8111
-69.3457
-68.7067
-67.9227
-67.0174
-66.0012
-64.8787
-63.6516
-62.3035
-60.8331
-59.2452
-57.55
-55.7329
-53.7776
-51.6912
-49.4844
-47.1746
-44.79
-42.3298
-39.8593
-37.3126
-34.6722
-31.8841
-28.9257
-25.7318
-22.4061
-18.6267
-15.0594
-11.1227
-8.44999
-4.7139
-1.2694
2.65549
6.86967
11.5168
17.2798
21.4259
25.3613
29.3874
33.6028
38.0327
44.8616
50.1954
55.29
60.0622
65.2876
72.5986
80.826
90.5721
100.365
109.261
116.984
123.772
126.88
127.681
129.799
132.091
134.217
136.71
137.914
138.474
138.351
137.4
135.669
133.299
130.594
127.446
123.869
119.876
115.501
110.964
106.273
101.701
97.0915
92.4906
87.8355
83.2756
78.7523
74.2892
69.9525
65.7401
61.4715
57.2719
53.1921
49.1485
45.0018
40.9969
37.096
33.1659
29.3043
25.3265
22.2314
16.9798
13.6538
12.0765
9.09028
4.08912
1.68981
-0.50659
-1.29492
-2.21247
-17.9572
-13.2986
-11.1279
-9.96
-9.33166
-9.00344
-8.83996
-8.76172
-8.72157
-8.69141
-8.65471
-8.60185
-8.52742
-8.42892
-8.30582
-8.159
-7.99034
-7.80255
-7.59908
-7.38397
-7.16185
-6.93765
-6.71649
-6.50344
-6.30327
-6.1203
-5.95825
-5.82021
-5.70864
-5.62545
-5.57197
-5.54895
-5.55615
-5.59245
-5.6556
-5.74272
-5.84787
-5.96423
-6.08367
-6.19792
-6.29953
-6.38287
-6.44556
-6.48063
-6.51386
-6.58022
-6.92154
-7.89001
-9.60535
-11.8884
-14.4709
-17.0276
-19.1633
-20.5816
-21.2994
-21.6111
-22.4845
-24.3593
-27.0281
-30.29
-34.0093
-38.029
-42.2113
-46.4656
-50.6844
-54.7466
-58.5801
-62.1124
-65.3018
-68.1181
-70.5483
-72.5848
-74.2274
-75.4802
-76.359
-76.8995
-77.148
-77.1443
-76.9142
-76.4709
-75.8119
-74.9497
-73.919
-72.756
-71.4694
-70.065
-68.5497
-66.9081
-65.1616
-63.3044
-61.3397
-59.2435
-56.9764
-54.5108
-51.8451
-49.0075
-46.0151
-42.8258
-39.8456
-36.8239
-33.711
-30.4327
-26.9913
-23.2094
-19.4299
-14.2273
-9.95424
-4.98096
-1.05836
3.14846
7.39989
11.9219
16.6316
21.5374
28.2055
33.9159
39.3476
44.7687
50.2073
54.7533
60.9208
68.2714
75.7338
84.1115
92.5929
102.573
111.615
120.68
125.7
131.014
137.161
142.663
147.642
151.849
154.512
156.855
158.703
159.804
160.06
159.803
158.71
156.451
153.315
149.585
145.365
140.647
135.474
129.868
123.897
117.86
111.895
106.066
100.334
94.7133
89.1057
83.7324
78.5278
73.4841
68.6918
64.2677
59.7245
55.4677
51.4205
47.5868
43.6537
39.952
36.4967
32.8986
29.4521
25.9831
22.9931
18.771
15.0562
13.7255
11.3692
6.80781
4.6655
1.45641
0.433489
-1.17932
-22.5145
-16.0933
-13.2005
-11.638
-10.7842
-10.3101
-10.0346
-9.8565
-9.71894
-9.58977
-9.45083
-9.29202
-9.10843
-8.89826
-8.6619
-8.40138
-8.12013
-7.82281
-7.51516
-7.20381
-6.89605
-6.59946
-6.32145
-6.06878
-5.84719
-5.66109
-5.51347
-5.40585
-5.33847
-5.31059
-5.32066
-5.36465
-5.43949
-5.54186
-5.66891
-5.81352
-5.96906
-6.12852
-6.28506
-6.43314
-6.56985
-6.69675
-6.82256
-6.96853
-7.18648
-7.62332
-8.58912
-10.1944
-12.2887
-14.622
-16.8305
-18.6241
-19.7346
-20.381
-20.7683
-21.59
-23.3988
-26.1906
-29.6466
-33.5715
-37.8369
-42.32
-46.9319
-51.5868
-56.1617
-60.5661
-64.7171
-68.543
-71.9959
-75.0445
-77.6717
-79.8686
-81.6294
-82.9447
-83.818
-84.2862
-84.4118
-84.2503
-83.8404
-83.2053
-82.3268
-81.2218
-79.9205
-78.4723
-76.8733
-75.1109
-73.1844
-71.0882
-68.9122
-66.7071
-64.4069
-61.9761
-59.3484
-56.4673
-53.3176
-49.8922
-46.1143
-41.6387
-37.9268
-34.2527
-30.4564
-26.4657
-22.4451
-17.7739
-12.9419
-8.41236
-2.48072
3.51418
8.9086
14.3836
20.0276
25.8703
31.7157
36.8515
42.8935
50.683
58.1222
65.6927
73.6211
82.8032
90.7137
100.106
108.637
117.261
124.611
128.325
135.724
143.31
151.197
158.462
164.289
169.636
174.547
178.13
180.712
182.878
184.112
183.809
182.562
181.04
178.522
174.255
169.07
163.511
157.44
150.725
143.479
135.831
127.92
120.15
112.794
105.675
98.7093
91.962
85.3318
79.0074
73.1845
67.4323
62.0112
57.3842
52.4816
47.9865
44.216
40.4636
36.5547
33.453
30.7317
27.4895
24.43
22.2461
18.3848
16.2941
14.552
11.335
9.57514
6.89495
4.95986
2.61801
1.59068
0.00215929
-25.2459
-17.853
-14.7239
-13.0988
-12.2289
-11.7344
-11.4189
-11.1797
-10.9626
-10.7383
-10.491
-10.2133
-9.90266
-9.55959
-9.18692
-8.78927
-8.3731
-7.94648
-7.51884
-7.10056
-6.70237
-6.33471
-6.00706
-5.72726
-5.50094
-5.33116
-5.21844
-5.16096
-5.15508
-5.19628
-5.28745
-5.39488
-5.54384
-5.7147
-5.9011
-6.09713
-6.29712
-6.49587
-6.69024
-6.88082
-7.07427
-7.28698
-7.55139
-7.92878
-8.50285
-9.44922
-10.9137
-12.7214
-14.6447
-16.4295
-17.8337
-18.7691
-19.3987
-19.9663
-20.9338
-22.7059
-25.4381
-28.9475
-32.9575
-37.3062
-41.9087
-46.6965
-51.5733
-56.4652
-61.2755
-65.9155
-70.2976
-74.346
-78.0093
-81.2538
-84.0569
-86.4063
-88.2936
-89.6922
-90.5831
-90.9928
-90.9972
-90.6677
-90.0492
-89.1754
-88.0004
-86.6382
-85.0783
-83.3696
-81.4803
-79.3493
-76.9434
-74.2364
-71.2835
-68.6217
-65.8947
-63.0109
-59.8754
-56.4609
-52.7565
-48.6825
-44.2169
-38.8538
-34.18
-29.4111
-24.4476
-19.2935
-13.4252
-8.41797
-2.50715
3.27962
8.91704
15.6747
22.9117
30.1713
37.6763
45.4984
53.7324
63.0295
71.5743
81.067
89.6799
98.3254
106.996
115.303
121.489
126.065
133.542
141.219
148.885
157.95
165.52
172.563
179.519
185.886
191.478
196.718
201.396
204.357
206.107
207.73
207.904
205.531
202.087
198.856
194.37
187.001
178.814
171.064
162.644
153.143
142.925
132.457
121.891
111.684
102.318
93.5614
85.2495
77.521
70.3324
63.6375
57.8471
52.267
46.8536
42.7869
38.198
33.6475
30.9546
27.3878
22.6833
21.3295
19.3382
15.8921
13.4716
11.8608
9.61187
7.94455
6.59747
5.09169
3.79625
2.42598
1.38082
0.156571
-0.368833
-0.981576
-26.7573
-19.964
-17.0782
-15.503
-14.5904
-14.0079
-13.5814
-13.2177
-12.8663
-12.4995
-12.1033
-11.6711
-11.2012
-10.6955
-10.1594
-9.60121
-9.03162
-8.46333
-7.91027
-7.38684
-6.90689
-6.48273
-6.12422
-5.83796
-5.62686
-5.49005
-5.42344
-5.4206
-5.47513
-5.59477
-5.71075
-5.8844
-6.07994
-6.28992
-6.50892
-6.73373
-6.96193
-7.1945
-7.43746
-7.70391
-8.01596
-8.40637
-8.91425
-9.57538
-10.4198
-11.5424
-12.9262
-14.3331
-15.6208
-16.7003
-17.5736
-18.3655
-19.2542
-20.5062
-22.373
-24.9704
-28.2765
-32.1295
-36.3451
-40.8162
-45.492
-50.3026
-55.1889
-60.087
-64.9203
-69.6061
-74.0512
-78.1771
-81.9388
-85.3043
-88.231
-90.691
-92.6784
-94.1626
-95.1022
-95.5142
-95.4658
-95.0365
-94.2429
-93.0799
-91.467
-89.8342
-88.0698
-86.1413
-83.9795
-81.4877
-78.6394
-75.3965
-71.5998
-68.2724
-64.7734
-61.064
-57.0576
-52.7541
-48.1454
-43.2292
-38.0725
-32.9088
-27.0891
-20.9472
-14.0157
-7.67007
-0.478226
6.87544
14.6662
22.9071
31.5892
40.237
49.7176
58.5886
67.4836
76.4332
85.3738
94.2743
102.456
107.476
114.866
122.765
130.667
138.429
146.539
155.449
163.296
170.872
178.387
185.909
193.131
199.973
206.694
212.896
217.924
222.635
226.867
228.442
228.141
228.814
227.108
221.192
214.67
209.524
201.905
189.649
176.935
165.029
151.933
138.182
124.287
111.007
98.5058
86.7449
76.597
67.6648
59.1218
51.4177
44.9064
39.2299
34.4291
30.3043
25.9642
23.2049
19.9131
15.9147
14.7682
12.8858
9.13456
7.02477
5.35221
3.35402
1.43688
0.043989
-1.63936
-2.99851
-4.16306
-5.06752
-5.89213
-6.38345
-6.77855
-6.88407
-6.78469
-6.1641
-26.7213
-22.1059
-20.0621
-18.7423
-17.8337
-17.153
-16.5878
-16.0678
-15.5482
-15.0132
-14.4441
-13.8358
-13.1882
-12.5067
-11.8014
-11.0862
-10.3776
-9.69327
-9.05052
-8.4651
-7.95022
-7.51503
-7.16475
-6.90094
-6.7208
-6.61804
-6.58394
-6.60946
-6.71804
-6.84592
-6.95508
-7.14196
-7.34638
-7.56558
-7.79135
-8.02836
-8.28017
-8.5515
-8.85008
-9.18831
-9.56125
-10.0022
-10.5308
-11.1585
-11.8885
-12.7829
-13.8146
-14.8377
-15.8419
-16.7678
-17.6993
-18.837
-20.3846
-22.35
-24.78
-27.6691
-30.9865
-34.6603
-38.6096
-42.7751
-47.1079
-51.5628
-56.094
-60.6504
-65.175
-69.5967
-73.8138
-77.758
-81.4363
-84.8145
-87.7879
-90.2794
-92.287
-93.8118
-94.8263
-95.3462
-95.3681
-94.9245
-93.9432
-92.4149
-90.2594
-88.3518
-86.2162
-83.8849
-81.3371
-78.4875
-75.3206
-71.8481
-68.1196
-63.9113
-59.3746
-54.5386
-49.1971
-43.4392
-37.2684
-30.7157
-23.8284
-16.5847
-8.91713
-0.897231
7.50339
16.2288
24.8933
33.7502
42.7268
51.7029
60.3715
68.333
75.1379
83.3749
91.7921
100.145
108.361
116.436
124.481
133.658
142.106
150.255
158.261
166.204
174.201
182.085
189.841
197.459
204.915
212.405
219.602
226.058
232.448
238.287
241.87
245.293
248.554
247.441
243.349
242.975
237.634
225.107
215.53
204.473
190.182
171.532
153.099
140.134
122.359
104.36
87.6561
72.8003
60.6704
50.9141
42.1356
34.2965
28.2486
23.5466
19.7115
16.8062
13.8976
11.7412
9.67322
6.97905
6.16473
4.40579
2.78495
1.43445
0.139595
-1.14323
-2.47736
-3.95162
-5.46965
-6.94451
-8.39075
-9.74046
-11.0858
-12.1934
-13.3384
-13.9236
-14.9304
-15.0474
-14.9837
-14.4819
-23.6806
-22.1289
-21.3527
-20.7411
-20.2313
-19.7747
-19.3383
-18.892
-18.4116
-17.8728
-17.2313
-16.4909
-15.6951
-14.8646
-14.021
-13.2021
-12.4414
-11.7676
-11.1914
-10.7106
-10.3181
-10.0022
-9.75607
-9.5844
-9.48603
-9.45719
-9.49495
-9.61855
-9.72328
-9.91246
-10.1307
-10.3667
-10.6249
-10.9004
-11.1877
-11.5004
-11.8318
-12.1772
-12.5332
-12.8983
-13.286
-13.6853
-14.0931
-14.5074
-14.9277
-15.3942
-15.914
-16.5153
-17.2203
-17.9694
-18.9678
-20.1829
-21.6172
-23.3272
-25.3601
-27.7138
-30.3738
-33.3589
-36.6781
-40.2089
-43.7885
-47.4832
-51.2663
-55.0949
-58.9261
-62.6849
-66.2772
-69.5945
-72.9434
-76.0704
-78.7669
-80.979
-82.6982
-83.8981
-84.567
-85.2919
-85.3768
-85.0235
-84.2459
-83.0489
-81.4667
-79.4685
-77.0326
-74.2558
-71.1514
-67.6902
-63.8467
-59.5664
-54.7774
-49.4797
-43.6958
-37.4596
-30.9442
-24.0956
-16.9336
-9.50329
-1.86425
5.966
14.1569
21.6924
31.4326
40.0675
48.666
57.2729
65.8413
74.3286
82.7672
91.3595
100.445
108.945
117.239
125.434
133.546
141.599
149.676
157.899
166.091
174.224
182.331
190.483
198.661
206.668
214.591
222.324
229.54
236.914
243.872
249.081
254.526
259.504
260.203
261.154
262.755
255.655
247.466
240.895
228.824
205.937
194.302
179.863
153.631
130.242
108.096
81.9108
63.2113
49.1382
38.6621
30.708
24.5976
19.8373
15.9952
12.7057
10.1182
8.12412
6.221
4.41529
3.11535
1.35504
0.702246
-0.165505
-0.843929
-1.59833
-2.43076
-3.41335
-4.20734
-4.97832
-5.93756
-7.02098
-8.20248
-9.5189
-10.8963
-12.2386
-13.7545
-15.0418
-16.6175
-17.6911
-18.9282
-19.4544
-20.4553
-20.3618
-20.7996
-20.7412
-20.6951
-20.6109
-20.4776
-20.2984
-20.0552
-19.7477
-19.3884
-18.982
-18.5341
-18.0564
-17.5668
-17.086
-16.6341
-16.2329
-15.8931
-15.6183
-15.4143
-15.2813
-15.1953
-15.1876
-15.2743
-15.5175
-15.7827
-15.9973
-16.3849
-16.7996
-17.2273
-17.665
-18.1667
-18.7155
-19.2905
-19.8827
-20.4967
-21.1165
-21.724
-22.3029
-22.8374
-23.3113
-23.7086
-24.01
-24.2015
-24.276
-24.2349
-24.0715
-23.8087
-23.5342
-23.2575
-23.1353
-23.1985
-23.4152
-23.7504
-24.2383
-24.8903
-25.7023
-26.7497
-28.2848
-30.3425
-32.3648
-34.2499
-36.4382
-38.7553
-41.0817
-43.2866
-45.2928
-47.1077
-49.2302
-51.5973
-54.1215
-56.7068
-59.1196
-61.4005
-62.9894
-64.112
-64.809
-64.9988
-64.7011
-63.8814
-62.642
-60.9584
-58.7704
-56.0357
-52.8284
-49.2291
-45.2551
-40.8822
-36.0493
-30.6689
-24.8318
-18.6314
-12.0976
-5.25602
1.88285
9.28269
16.8935
24.6393
32.5766
38.7482
48.3533
57.0935
65.533
73.8701
82.1778
90.45
98.6853
106.883
115.032
123.103
131.081
139.024
146.996
154.991
162.991
171.008
179.115
187.281
195.473
203.691
212.019
220.471
228.566
236.501
244.179
250.377
257.167
263.564
265.899
269.974
272.769
268.262
264.376
259.758
242.785
226.321
216.197
188.473
166.389
131.394
95.8796
70.9933
53.3243
40.3286
30.1372
22.8144
16.9816
12.8214
10.0012
6.95436
4.70185
3.15795
1.7536
0.7857
0.0716466
-0.800265
-1.55994
-2.1348
-2.3835
-2.99361
-3.29227
-3.50228
-3.72268
-4.02029
-4.4066
-4.78319
-5.34445
-5.97226
-6.70125
-7.58577
-8.59876
-9.84344
-11.0965
-12.6751
-14.1261
-15.99
-17.5351
-19.2534
-20.4037
-21.9574
-22.7504
-22.2368
-20.7085
-20.013
-19.5147
-19.1484
-18.8792
-18.6464
-18.4357
-18.2427
-18.0701
-17.9271
-17.8281
-17.7917
-17.8394
-17.998
-18.2404
-18.5727
-18.9987
-19.5751
-20.0805
-20.7947
-21.5942
-22.474
-23.4274
-24.4421
-25.5436
-26.712
-27.8852
-29.0977
-30.3739
-31.6529
-32.9416
-34.2199
-35.4759
-36.6982
-37.8664
-38.9451
-39.9027
-40.7107
-41.343
-41.7716
-41.9682
-41.9084
-41.5694
-40.9356
-39.8856
-38.3944
-36.5921
-34.557
-32.3846
-30.1314
-27.8513
-25.6104
-23.4882
-21.5749
-19.8647
-18.5308
-17.6661
-16.9111
-16.2745
-16.3976
-16.6875
-17.062
-17.3376
-17.863
-18.1796
-19.2435
-21.4808
-23.6511
-25.2938
-26.9786
-28.2805
-28.4964
-29.3781
-30.398
-31.21
-31.8768
-31.9087
-31.5524
-30.8321
-29.7182
-28.1269
-25.9937
-23.3336
-20.2114
-16.6775
-12.7294
-8.35647
-3.60129
1.61701
7.24278
13.2335
19.5375
26.1776
33.0576
40.2255
47.7995
52.77
60.8845
68.9381
76.8874
84.6863
92.4259
100.157
107.871
115.578
123.31
131.045
138.74
146.392
154.085
161.877
169.762
177.734
185.799
193.973
202.296
210.684
219.104
227.616
236.34
244.262
251.721
259.095
263.109
269.137
274.117
270.945
271.265
269.037
254.424
242.179
226.729
201.415
172.362
123.962
88.4808
64.2522
46.3607
32.7332
23.2862
16.4301
11.8628
8.10387
5.02683
3.02945
1.4337
0.431252
-1.08817
-2.0726
-2.37262
-2.99022
-3.40058
-3.66458
-4.19417
-4.14319
-4.08605
-4.12928
-4.06923
-4.10678
-4.03551
-3.81789
-3.81478
-3.4507
-3.40774
-3.4915
-3.68181
-3.88493
-4.29992
-4.79263
-5.57845
-6.29223
-7.67045
-9.19145
-11.1464
-13.0205
-15.248
-17.2886
-19.4402
-21.5123
-22.8073
-19.7078
-18.3897
-17.5768
-17.0436
-16.6694
-16.4337
-16.2997
-16.2509
-16.2829
-16.3969
-16.5936
-16.8738
-17.2325
-17.6972
-18.1725
-18.7997
-19.51
-20.293
-21.178
-22.2006
-23.253
-24.3531
-25.5426
-26.8401
-28.2557
-29.7506
-31.3283
-33.0021
-34.7857
-36.7012
-38.8378
-40.6356
-42.3042
-43.9107
-45.44
-46.8666
-48.1695
-49.3279
-50.3074
-51.0966
-51.6739
-51.9944
-51.9934
-51.6222
-50.7548
-49.2123
-47.0606
-44.3317
-41.0755
-37.356
-33.251
-28.8569
-24.2005
-20.0879
-15.8617
-12.0477
-8.72044
-5.00971
-1.86265
0.750474
2.58832
3.95581
5.06657
5.45939
5.76838
5.70197
5.12725
4.43654
4.63614
3.95389
2.85646
0.756066
-0.809537
-2.09809
-2.87655
-2.82662
-2.89352
-3.00854
-2.91864
-2.53295
-1.7358
-0.460243
1.30171
3.5434
6.23046
9.34203
12.8732
16.8373
21.2204
26.0153
31.2269
36.6913
42.7351
48.6466
55.7943
60.1348
67.1643
74.0887
81.2359
88.3872
95.5276
102.696
109.908
117.149
124.419
131.767
139.202
146.643
154.1
161.713
169.533
177.591
185.845
194.285
202.854
211.693
220.592
229.358
238.301
246.916
254.05
259.869
265.561
266.18
269.438
270.76
255.876
254.607
241.603
216.472
178.403
124.499
87.862
62.5331
42.9935
28.8288
19.5051
13.0875
8.25974
4.9243
2.5934
0.824143
-0.793486
-2.11792
-2.52048
-3.15823
-4.13496
-4.00405
-4.30861
-4.64111
-5.0539
-5.5443
-5.87357
-6.34484
-6.75856
-6.88699
-7.25173
-6.8257
-6.51874
-6.25638
-4.80387
-4.38438
-2.98457
-1.07202
-0.635219
0.481004
1.50527
1.60081
1.9114
1.79415
0.402765
0.691909
-0.241034
-1.41428
-1.97327
-3.18554
-5.85996
-7.74535
-11.4834
-23.0251
-19.2274
-17.7547
-16.9501
-16.4868
-16.2014
-16.0454
-15.978
-15.9988
-16.1232
-16.3722
-16.6531
-17.0342
-17.4653
-17.9246
-18.4033
-18.9406
-19.5277
-20.1732
-20.9212
-21.7183
-22.5683
-23.5034
-24.5415
-25.6771
-26.8898
-28.1546
-29.4507
-30.7585
-32.0687
-33.3147
-34.31
-35.5379
-36.9875
-38.6334
-40.365
-42.0758
-43.6716
-45.1305
-46.4315
-47.674
-48.9325
-50.141
-51.1465
-51.7893
-51.9547
-51.5406
-50.5462
-48.8916
-46.5049
-43.3947
-39.5904
-35.2003
-29.2455
-25.9213
-20.3192
-15.0248
-9.98285
-4.99101
-0.248169
4.02864
7.76367
10.9956
14.277
15.6978
17.793
19.012
19.7679
20.0973
20.0876
20.103
19.9331
19.6627
19.1023
18.4865
18.6869
18.0584
17.5332
17.2271
17.0435
17.0389
17.2916
17.9226
18.9603
20.4266
22.3012
24.5393
27.1577
30.2721
33.7355
37.5853
42.12
46.4738
52.545
55.9892
61.2583
68.2641
73.9294
79.9811
86.3142
92.8249
99.4694
106.24
113.139
120.149
127.252
134.506
141.905
149.409
156.907
164.982
173.475
182.254
191.314
200.534
209.941
219.5
229.026
237.52
247.167
253.435
258.111
261.251
265.618
258.998
259.825
245.929
228.624
180.018
120.13
82.3734
56.8996
37.6392
24.223
15.5611
8.92965
5.144
2.34227
0.354815
-1.5902
-2.32899
-2.90903
-4.05084
-4.07884
-4.42972
-4.98896
-5.68986
-6.59357
-7.90343
-9.55309
-10.9742
-12.5004
-14.016
-15.0675
-16.2597
-16.8204
-16.6431
-16.7815
-15.3369
-13.5658
-12.3518
-8.30296
-5.90289
-3.71695
3.09637
5.07176
7.91514
12.6862
16.035
18.9898
21.0163
22.3223
22.4447
21.4286
19.634
17.3377
15.2886
11.3216
5.93387
4.77355
-23.7807
-19.3092
-17.7089
-17.2747
-17.2534
-17.2654
-17.4829
-17.7921
-18.0554
-18.3915
-18.6444
-18.7368
-18.6667
-18.3107
-17.6668
-16.7558
-15.7497
-14.7473
-13.8696
-13.2536
-13.0168
-13.2522
-13.9912
-15.1767
-16.647
-18.1405
-19.464
-20.4708
-20.9969
-21.1978
-21.0977
-20.7351
-21.0128
-22.2035
-24.3939
-27.1603
-30.0992
-32.6339
-34.3702
-35.4902
-36.4835
-37.9542
-40.1012
-42.554
-44.6635
-46.0202
-46.6503
-46.9465
-46.9187
-46.2292
-44.7573
-42.4178
-39.5107
-34.5975
-31.9257
-27.8212
-22.2234
-17.5662
-12.611
-7.64614
-2.8646
1.63647
5.79449
9.79568
13.0893
15.9899
18.3569
20.6486
21.5711
22.759
24.0638
24.6608
24.898
25.0701
25.0247
25.0112
24.8238
24.6638
24.5913
24.6397
24.8012
25.1035
25.688
26.5826
27.9869
29.5677
31.2949
33.288
35.9857
38.6467
41.6474
46.3351
48.8948
53.0908
58.7195
63.1636
68.4537
73.962
79.7273
85.7603
92.0477
98.5709
105.321
112.322
119.55
126.986
134.731
142.54
150.754
160.557
170.428
180.548
190.503
201.002
211.334
221.947
232.091
241.79
248.666
256.522
256.653
257.329
250.499
244.994
231.654
184.003
119.109
79.2327
50.6929
30.9266
19.3361
11.2708
5.68362
2.68319
0.239835
-1.86721
-2.55471
-3.31466
-4.43092
-4.41037
-4.83817
-5.40423
-6.43702
-8.06113
-10.1167
-12.4237
-15.2452
-18.3124
-21.7896
-25.1835
-28.4441
-31.607
-34.1379
-35.7506
-36.7161
-36.2146
-34.6378
-32.3672
-28.174
-23.7576
-19.0353
-12.0191
-7.1892
-1.26019
9.44706
12.4431
17.0185
24.7481
31.5976
37.8812
43.5867
49.025
54.2163
57.375
59.6449
61.6678
58.2564
52.5522
47.4659
38.5771
-17.2723
-4.37837
-0.51717
0.978602
2.21791
-0.0453892
-5.13045
-12.8269
-19.3329
-27.7502
-34.0485
-37.6525
-38.6595
-36.9045
-32.5804
-25.6437
-18.1192
-10.6739
-3.85596
1.82146
5.96482
8.2714
8.54817
6.75663
3.10866
-1.97491
-7.6835
-12.9775
-16.3328
-17.5289
-16.9021
-13.7342
-10.1348
-7.89712
-8.7862
-12.203
-17.3949
-23.1086
-26.8806
-28.2289
-27.9691
-27.5669
-28.5835
-31.5301
-35.4689
-38.6998
-40.0505
-40.6744
-41.5801
-42.6434
-42.9531
-42.2147
-40.8546
-38.2801
-35.2369
-33.3326
-29.6073
-25.5659
-21.2975
-16.9815
-12.6437
-8.37423
-4.2674
-0.264816
3.42811
6.75302
9.64454
12.332
14.4014
16.198
17.7947
19.325
19.9656
20.9571
21.5249
22.1727
22.4972
22.8495
23.2193
23.5904
24.0296
24.6173
25.3998
26.39
27.7927
29.5928
31.2077
33.0713
36.3037
38.1414
41.0695
45.4725
48.9055
52.9151
57.606
62.4142
67.6512
73.2324
79.137
85.3699
91.9386
98.8336
106.048
113.637
121.551
129.8
138.49
147.286
156.778
167.573
178.127
189.33
200.018
211.295
221.298
231.678
239.072
245.944
247.714
246.472
236.27
225.699
207.07
140.419
93.7112
59.4258
34.7015
19.7104
10.5513
4.61488
1.59629
-0.678792
-2.77106
-3.30788
-4.15947
-4.74351
-4.79839
-5.17405
-5.91783
-7.28294
-9.18183
-11.4644
-14.474
-18.3773
-22.8048
-28.0219
-33.7015
-39.4649
-45.0111
-49.9067
-53.5978
-56.0999
-56.7689
-55.7311
-53.1235
-48.7737
-43.4565
-36.9867
-29.9437
-22.8459
-14.8753
-7.83492
-1.38475
9.56102
13.0625
18.1479
25.6953
32.1514
38.3951
44.4338
50.552
56.4641
62.2229
68.4374
73.6261
76.5885
84.2037
88.9917
91.9112
89.3064
49.309
89.4701
135.084
175.921
201.78
194.346
170.958
130.703
104.225
53.9059
12.2786
-22.393
-47.9647
-63.7217
-70.3226
-70.6168
-63.9115
-52.5343
-38.4435
-23.1937
-8.10477
5.64743
16.8631
24.2771
26.7589
23.6877
15.5474
3.62318
-9.16167
-15.6051
-24.7834
-22.6203
-15.9416
-7.1173
-1.27493
-0.371801
-3.17096
-11.7168
-19.6118
-24.5646
-25.4134
-23.5267
-21.5434
-22.3995
-26.8005
-32.3677
-35.1862
-35.8057
-36.6647
-38.3829
-40.0541
-40.6919
-40.5296
-39.5012
-37.6002
-36.4302
-34.8277
-31.911
-28.728
-25.4669
-21.9838
-18.4393
-14.9105
-11.3676
-7.91042
-4.6534
-1.70913
1.04917
3.48896
5.64829
7.55117
9.3801
10.7194
12.0334
13.0864
14.3336
14.9112
15.8606
16.6588
17.4676
18.3511
19.3429
20.4989
21.8067
23.4297
25.8073
27.1863
29.3719
32.7408
35.452
38.5238
42.4471
46.4256
50.7605
55.5582
60.7144
66.2793
72.2358
78.569
85.288
92.4097
99.9208
107.814
116.188
124.898
134.03
143.696
153.382
163.679
174.696
185.254
196.737
206.709
216.747
224.376
230.434
233.27
230.365
224.406
201.481
184.418
124.834
83.4022
50.8796
29.4557
15.7301
7.44496
2.15733
-0.199218
-2.80793
-3.58591
-4.53633
-5.12452
-5.12575
-5.35856
-5.9541
-6.98525
-8.4304
-10.4485
-13.3148
-16.984
-21.9462
-28.0278
-35.0575
-42.6074
-50.2785
-57.4074
-63.4821
-68.002
-70.6264
-70.9943
-69.3963
-65.6581
-60.3104
-53.765
-46.0719
-38.0046
-29.7944
-21.8717
-14.0305
-6.79765
-0.446787
8.36784
12.2117
15.9669
22.9472
28.3186
33.6772
39.0087
44.4704
50.2394
56.0427
62.0894
68.7236
74.9384
80.832
87.6562
94.0361
100.539
104.746
-101.306
-38.8231
89.625
232.107
336.336
377.354
390.915
375.885
339.81
282.638
213.926
142.313
75.1927
17.8577
-26.8299
-57.9656
-76.3608
-83.6968
-81.8884
-72.6219
-57.5273
-38.1118
-16.216
5.57523
23.9631
35.547
37.9353
30.0995
14.9134
-3.28002
-20.7095
-28.9633
-27.6074
-17.7082
-5.21264
0.201389
6.257
-0.84182
-10.281
-19.4485
-23.9114
-23.8842
-19.6697
-16.6649
-19.0864
-26.111
-31.1116
-32.1898
-32.6002
-34.419
-36.9972
-38.7984
-39.618
-39.6776
-39.0885
-38.8184
-37.9322
-36.7463
-34.5762
-32.3843
-29.7424
-27.0386
-24.2401
-21.2928
-18.2857
-15.3703
-12.6659
-10.0777
-7.64754
-5.44036
-3.4457
-1.50966
0.125786
1.65691
3.03615
4.52081
5.65703
6.86935
8.03414
9.2207
10.5077
11.8954
13.4399
15.1192
17.0798
19.5676
21.7799
24.2902
27.6093
30.9578
34.5003
38.588
42.9765
47.7294
52.913
58.5121
64.5376
70.9864
77.8437
85.1203
92.8406
100.969
109.497
118.588
127.791
137.551
147.78
157.83
168.436
179.282
189.007
198.93
206.674
213.554
217.47
214.674
210.539
192.183
172.473
133.79
86.3994
51.9197
30.4342
15.9898
7.91208
2.06944
-0.473837
-3.08996
-3.92364
-5.21151
-5.37892
-5.61052
-5.8033
-6.3317
-7.18105
-8.49971
-10.4247
-13.2394
-17.1151
-22.4252
-29.15
-37.1598
-46.0411
-55.123
-63.6349
-70.8715
-76.2576
-79.3926
-80.2671
-78.7943
-75.1609
-69.7717
-62.5211
-54.3665
-45.7603
-36.5714
-27.867
-19.6705
-12.0398
-5.39584
0.39498
6.69133
11.3345
13.6972
18.8666
23.3844
27.7984
32.2457
36.8577
41.7798
47.1263
52.7403
58.7761
65.3174
71.9634
78.7729
85.8762
93.0716
100.756
107.513
-1653.97
-1182.71
-770.845
-417.42
-131.998
93.7646
251.971
349.904
396.787
397.554
364.477
308.446
239.385
166.084
95.7035
33.2473
-18.5361
-58.1518
-85.0775
-99.0534
-100.55
-89.9699
-68.4459
-38.8441
-6.07915
23.5913
43.9985
50.0834
41.2506
20.5918
-4.68241
-25.4264
-35.5479
-31.5748
-18.9914
-4.46508
9.39632
6.73104
1.02722
-11.3072
-19.3991
-25.3533
-21.3703
-14.2486
-12.5317
-19.4065
-26.8587
-29.1249
-29.1356
-30.6034
-33.7265
-36.5943
-38.3725
-39.3612
-39.8894
-40.6034
-40.8781
-40.5158
-39.8772
-38.745
-36.9167
-35.212
-33.2616
-30.9904
-28.5475
-26.1327
-23.8392
-21.5391
-19.2757
-17.1829
-15.2042
-13.2329
-11.4784
-9.82348
-8.20708
-6.51714
-4.99286
-3.47999
-2.01564
-0.500007
1.16374
2.94212
4.87687
6.94861
9.29153
12.0478
14.8562
17.8797
21.4629
25.3085
29.3832
33.8691
38.7272
43.9692
49.6528
55.7689
62.3315
69.3357
76.7643
84.6154
92.9371
101.565
110.631
120.252
129.694
139.878
150.383
160.015
170.284
179.881
187.606
194.697
198.216
199.849
197.192
182.303
165.194
133.747
88.687
56.2185
33.8064
18.2034
9.54405
3.04017
0.304777
-2.72969
-3.87319
-5.29374
-5.56867
-6.01856
-6.36215
-6.50123
-7.08271
-8.08142
-9.72507
-12.0187
-15.6155
-20.6314
-27.2541
-35.5087
-45.0935
-55.3247
-65.3057
-73.9985
-80.7396
-85.0501
-86.9436
-86.2977
-83.4892
-78.4919
-71.5609
-63.493
-53.7814
-44.131
-34.6268
-24.986
-16.7972
-9.80028
-3.37157
1.54032
6.14461
9.93986
11.7605
15.5015
18.7821
22.1013
25.8343
29.7029
33.8358
38.3902
43.4722
48.9743
54.928
61.3344
68.0785
75.1714
82.4559
89.9878
98.0806
105.757
-1522.33
-1416.73
-1178.38
-930.525
-670.912
-414.982
-186.499
10.0917
175.949
283.179
354.891
388.22
383.525
348.035
290.093
217.961
139.464
61.6012
-10.0786
-69.5963
-113.122
-136.77
-137.428
-115.63
-76.3736
-28.1489
18.6656
52.9914
66.991
58.2214
31.5909
-1.84358
-30.5116
-43.5611
-39.9241
-23.7073
-0.0309939
12.6008
12.0086
-0.17001
-6.63963
-24.8055
-26.3773
-16.388
-7.74076
-11.3866
-21.184
-25.8559
-25.8885
-26.5472
-29.763
-33.6726
-36.5598
-38.5076
-40.1132
-41.9406
-43.5065
-44.4664
-44.9698
-45.1755
-44.5349
-44.0553
-43.1189
-41.6356
-39.9406
-38.2544
-36.6095
-34.7137
-32.7638
-30.9602
-29.0904
-27.1404
-25.3894
-23.6959
-21.8741
-19.9832
-18.1079
-16.2704
-14.5339
-12.6895
-10.6182
-8.41131
-6.04283
-3.52367
-0.732077
2.42916
5.81795
9.46427
13.5362
17.9442
22.6383
27.6957
33.1519
38.9967
45.3071
52.0372
59.2403
66.846
74.8895
83.306
92.1722
101.196
110.738
120.668
129.854
140.162
149.842
158.136
167.015
173.882
177.637
179.933
176.15
168.138
152.93
126.028
85.1361
55.9153
34.6636
19.5698
10.5222
4.06873
0.727488
-2.07029
-3.40709
-4.84495
-5.9167
-6.20551
-6.7191
-6.88653
-7.07842
-7.77167
-9.05108
-10.9485
-13.8928
-18.2797
-24.3619
-32.3588
-42.1302
-53.1723
-64.4408
-74.7983
-83.1831
-88.9816
-91.9394
-92.3135
-90.3201
-86.2226
-79.7818
-71.9971
-62.1146
-52.2375
-41.0044
-30.7018
-21.616
-12.4477
-5.79151
-1.03798
3.47883
6.97551
8.29991
10.4139
12.43
14.5354
16.8089
19.3501
22.8764
26.665
30.5166
34.9276
39.9449
45.4852
51.4056
57.719
64.4451
71.5571
78.9042
86.5514
94.7724
102.793
-789.209
-931.98
-1021.12
-1041.88
-1040.8
-916.874
-838.428
-659.456
-364.702
-275.929
-45.1855
155.922
308.302
411.012
463.319
464.117
417.203
331.153
216.95
92.5991
-27.761
-126.927
-188
-205.835
-183.596
-130.63
-60.1138
11.032
65.9808
91.9785
84.4776
50.5748
3.8904
-36.793
-57.9368
-55.5541
-29.8265
4.09072
16.8804
17.7935
10.8829
-16.9643
-30.2134
-23.7885
-7.67327
-3.44241
-13.6945
-21.8906
-22.9962
-22.6043
-25.2341
-29.8806
-33.9595
-36.9055
-39.4823
-42.4423
-45.3912
-47.8284
-49.7399
-51.3181
-52.1948
-52.8426
-53.0563
-52.9024
-51.9836
-51.297
-50.6253
-49.1946
-47.7282
-46.4222
-44.7506
-42.8917
-41.3251
-39.6796
-37.6287
-35.5816
-33.3474
-31.2153
-29.2764
-27.0915
-24.5846
-21.9415
-19.1058
-16.1046
-12.8236
-9.16919
-5.17897
-0.856895
3.8599
8.92502
14.3082
20.0428
26.1915
32.7079
39.716
47.0813
54.9437
63.1374
71.7796
80.6425
89.9232
98.9916
108.84
118.081
126.529
136.174
143.655
149.029
154.878
156.291
153.21
147.473
135.29
104.461
73.304
50.4045
32.2032
18.9699
10.5739
4.73214
0.747106
-1.48527
-3.39776
-4.24991
-5.75875
-6.11669
-6.8542
-7.32472
-7.39463
-7.61004
-8.49693
-10.0267
-12.3151
-15.9488
-21.1904
-28.4384
-37.7894
-49.0725
-61.3421
-73.3876
-83.6462
-91.2382
-95.5684
-97.0831
-95.802
-92.5609
-86.7613
-79.899
-70.133
-60.4613
-48.2154
-37.3069
-25.8859
-15.7248
-8.56267
-0.779915
3.80843
5.17939
7.48373
8.37763
8.68258
9.05671
9.9338
11.5531
13.817
15.475
18.9804
23.9506
27.4046
31.9876
37.0986
42.7543
48.7098
55.0009
61.7038
68.7626
76.1644
83.88
92.1813
100.39
-53.9759
-111.664
-178.477
-240.739
-315.728
-359.918
-399.55
-407.403
-388.427
-347.635
-272.578
-169.088
-47.9613
78.6712
196.569
291.298
352.398
368.182
340.307
268.21
165.113
46.9114
-72.495
-171.796
-233.17
-244.429
-201.791
-118.747
-18.374
73.4487
128.958
133.893
91.0858
20.6892
-47.3506
-87.1591
-79.4234
-38.5811
6.53498
37.6229
33.7048
2.28862
-27.809
-35.2913
-15.33
2.09204
-4.45182
-16.3947
-20.1271
-18.8468
-20.0071
-24.845
-30.126
-34.1251
-37.4931
-41.4493
-45.7789
-49.7788
-53.3635
-56.3356
-58.7206
-60.7861
-62.3514
-63.5966
-64.1229
-64.4535
-64.5867
-64.201
-63.4935
-62.8674
-61.4326
-59.6402
-58.7105
-57.0673
-54.5796
-52.6043
-49.9323
-47.6898
-45.6627
-43.0317
-40.0977
-37.0912
-33.7487
-30.2483
-26.4708
-22.2894
-17.6986
-12.6761
-7.28583
-1.51917
4.53583
10.9916
17.8713
25.0643
32.7682
40.689
49.1558
57.7654
66.6401
75.6506
85.0388
93.5847
103.137
109.891
117.459
124.59
127.812
127.648
129.47
119.167
108.591
79.8773
59.4485
40.654
26.6813
16.1897
9.37131
4.41163
0.763325
-1.07268
-3.3736
-4.19653
-5.4256
-5.72958
-6.28149
-7.12983
-7.71852
-7.93462
-8.10588
-9.29759
-11.013
-13.8986
-18.187
-24.3989
-32.7979
-43.6016
-56.1939
-69.5342
-81.8535
-91.6874
-97.9975
-100.768
-100.34
-97.8177
-92.7356
-86.4207
-77.4721
-68.2575
-56.0935
-44.7335
-31.1449
-20.4968
-8.90251
1.20821
3.78878
7.73954
8.21958
7.33319
7.43152
6.29006
5.60806
4.80454
5.39084
6.97633
9.15394
12.0635
17.1583
20.1396
24.2297
29.9754
35.1845
40.8729
46.9264
53.2881
60.0316
67.0744
74.4841
82.157
90.4089
98.6125
7.37922
4.08631
-0.838712
-10.0019
-21.4467
-32.9543
-42.3305
-49.4557
-56.0114
-59.2385
-57.6892
-49.6781
-35.906
-17.1028
6.22797
31.8304
57.1408
77.2155
88.3585
88.6851
76.1894
51.5946
20.4859
-16.8028
-54.929
-80.1765
-89.6801
-81.6903
-50.0126
-3.1675
37.3062
61.3143
64.2393
43.5272
5.67177
-33.0927
-51.2724
-42.3025
-14.8658
16.0179
27.9524
16.0478
-7.31604
-25.7096
-19.014
1.05846
3.81264
-8.41493
-15.5786
-13.9899
-12.7291
-16.8375
-23.1458
-28.1659
-32.014
-36.5725
-42.1162
-47.6911
-53.2148
-57.1541
-60.9704
-64.7382
-68.0643
-71.0424
-73.347
-75.2299
-76.702
-77.5519
-78.1157
-78.1649
-77.4822
-76.102
-74.9368
-73.4786
-71.5871
-69.7374
-66.2873
-64.7803
-62.5987
-59.0581
-56.0283
-52.9326
-48.9621
-44.9908
-40.7841
-36.1188
-30.9833
-25.3159
-19.2522
-12.7879
-6.01621
1.08581
8.57295
16.2993
24.5138
32.7083
41.5389
49.9681
58.5303
67.264
75.7844
83
90.168
92.4412
99.9483
100.715
94.5902
90.1207
70.6775
54.5596
42.0919
29.2697
20.0094
12.2382
7.16574
2.92505
0.795051
-1.08507
-3.34433
-4.0354
-5.23505
-5.82301
-6.10945
-6.60526
-7.31667
-8.11129
-8.40567
-8.76037
-10.0527
-12.2723
-15.6466
-20.7309
-27.84
-37.5304
-49.6141
-63.5421
-77.5399
-89.8134
-98.6908
-103.453
-104.428
-102.364
-97.9349
-91.7359
-84.0139
-74.8531
-64.3094
-52.1873
-39.0159
-25.5883
-11.7296
0.08712
4.93878
12.3334
11.607
11.1521
8.3872
5.06795
3.33246
0.978685
-1.33596
-1.45499
-0.490935
1.58198
4.53995
8.3899
13.1665
19.3707
22.5939
27.2089
33.7235
39.9916
46.3444
52.8541
59.6533
66.666
74.0321
81.5829
89.6869
97.7594
3.84295
2.90535
6.2268
1.96572
0.758177
-0.947363
-2.34373
-3.48577
-4.75751
-6.02793
-6.80995
-6.84527
-6.30796
-5.13089
-3.1855
-0.334885
3.4192
6.99909
10.293
12.6161
12.7442
11.0098
8.06207
2.97609
-3.87954
-9.99613
-14.5621
-16.8272
-14.4365
-7.25956
1.19541
8.30665
13.0915
13.4764
8.13975
-1.11521
-9.15373
-11.8725
-8.76893
-0.627231
6.63492
7.23422
2.02848
-5.98553
-8.08667
-1.14404
2.53522
-1.43405
-5.55401
-5.43545
-4.12208
-5.51456
-9.10449
-12.4705
-15.1565
-18.3347
-22.7743
-28.4778
-33.8247
-40.3153
-46.8997
-53.5761
-59.8723
-65.7391
-70.905
-75.4844
-79.3788
-82.3265
-85.2836
-85.79
-86.0213
-85.6788
-85.3766
-84.6077
-83.5998
-82.0733
-80.179
-77.3617
-76.244
-71.7305
-69.9002
-66.9431
-61.7767
-57.7404
-53.3923
-48.4349
-42.9469
-36.8329
-30.2687
-23.2623
-15.9742
-8.46627
-0.738155
7.17578
15.3228
23.2504
31.6131
38.7806
46.1035
54.2372
59.6762
64.0986
63.8207
64.8441
56.8443
48.9827
40.5804
33.6128
25.1081
17.9557
12.3437
7.72025
4.73379
1.4701
-0.0246661
-1.85282
-3.11095
-3.88115
-5.28826
-5.67037
-6.00243
-6.23037
-6.77708
-7.46468
-8.31807
-8.93546
-9.39496
-11.0601
-13.578
-17.7145
-23.5201
-31.6985
-42.5088
-55.9514
-70.8238
-85.3385
-97.1186
-104.677
-107.596
-106.614
-102.792
-96.5591
-89.4493
-80.1402
-71.299
-59.0323
-48.6702
-32.1774
-18.1609
-1.97843
4.60955
13.0621
15.9232
16.7813
14.4206
10.1769
4.83759
1.7568
-3.33187
-8.72382
-9.6587
-9.26807
-7.45468
-4.36539
-0.305549
4.4938
9.92694
16.6461
23.5961
26.5485
31.5781
39.9033
46.8252
53.5333
60.402
67.3803
74.6653
82.0458
89.9429
97.8028
1.75554
1.89875
1.90741
1.68729
1.44907
1.17133
0.684126
0.44551
0.316856
-0.55272
-0.992042
-1.29551
-1.46763
-1.49434
-1.34863
-0.882617
-0.0575267
0.877994
1.80906
2.75261
3.1048
3.02447
2.63104
1.80643
0.0924287
-1.98549
-3.37788
-4.34405
-4.33815
-2.92053
-0.904018
1.16985
2.99314
3.75158
3.04708
1.43357
-0.827407
-2.75265
-3.13288
-1.59139
0.717028
1.88323
1.52504
-0.3443
-1.88651
-0.815885
0.540217
-0.0183637
-1.18158
-1.35509
-0.90195
-1.04093
-2.00598
-3.03972
-3.89147
-4.78746
-6.23265
-8.35675
-10.7074
-13.444
-16.8313
-20.841
-25.357
-30.1634
-35.1824
-40.5375
-45.4876
-51.0472
-55.2931
-60.7878
-65.6046
-69.5716
-72.8302
-75.043
-76.9301
-77.4214
-78.0131
-76.6531
-76.2582
-74.193
-71.7071
-70.0081
-64.3927
-62.1273
-58.0007
-53.2474
-47.9355
-41.9414
-35.4828
-28.5341
-21.5339
-14.3078
-7.24239
0.0119768
6.69552
13.4946
18.9464
24.4452
28.4649
28.85
28.7367
28.1596
25.7641
23.4117
19.9037
15.9372
12.1665
9.02534
5.95183
3.70771
1.53117
-0.00180605
-0.779542
-2.59787
-3.1736
-4.0999
-5.15977
-5.63869
-5.9301
-6.04535
-6.45811
-6.81604
-7.74604
-8.68753
-9.40876
-10.1871
-12.1087
-15.3396
-19.8708
-26.7205
-35.9186
-47.9107
-62.4775
-78.1171
-92.7121
-103.573
-109.66
-110.505
-107.698
-101.608
-94.2225
-84.9376
-76.4343
-65.0728
-55.7047
-39.7401
-25.6219
-8.22206
1.13859
12.412
18.5549
23.5203
22.9569
18.5207
11.7038
3.51841
-1.24628
-8.34635
-16.8336
-19.1696
-19.5378
-18.0818
-15.0008
-10.6361
-5.33428
0.576334
7.00324
14.512
22.9198
27.0746
30.976
38.9402
48.2397
54.8321
61.7893
68.7553
75.9545
83.1556
90.8269
98.4233
0.82052
0.907251
0.952311
0.952538
0.91288
0.829942
0.699805
0.548962
0.362231
0.113604
-0.145523
-0.339672
-0.446678
-0.494061
-0.456173
-0.292094
-0.00529257
0.342576
0.686653
1.0274
1.12221
1.03697
0.842584
0.511496
-0.140777
-1.00866
-1.30804
-1.6034
-1.69448
-1.13339
-0.404871
0.397747
1.53467
1.71012
1.22861
0.937916
0.307478
-1.20208
-1.62293
-1.11755
-0.128064
0.703306
0.810461
0.322677
-0.324675
-0.41451
-0.0192524
0.00955847
-0.246728
-0.331216
-0.222769
-0.217314
-0.454085
-0.729049
-0.938809
-1.12763
-1.45851
-1.95456
-2.56352
-3.22902
-4.11248
-5.18274
-6.53645
-8.01188
-9.78048
-11.8454
-13.8957
-16.526
-18.9974
-21.6989
-24.5725
-27.5452
-30.5786
-33.0406
-35.7185
-37.3827
-39.3671
-40.0748
-41.1045
-41.2311
-40.9037
-39.9602
-38.9633
-35.9796
-34.7337
-32.1525
-29.0037
-25.4337
-21.5571
-17.3981
-13.3002
-9.22046
-5.46431
-1.81673
1.26594
4.13249
6.13877
7.86222
8.82709
8.88937
8.43195
7.75695
6.54165
5.30149
4.14017
2.7882
1.64935
0.446447
-0.610003
-1.15156
-2.33913
-2.87166
-3.40389
-4.47184
-4.97802
-5.49945
-5.77888
-6.02156
-6.24745
-6.48393
-6.99199
-7.7802
-9.2605
-10.2684
-11.1076
-13.5572
-17.1415
-22.7224
-30.0804
-40.5421
-53.7536
-69.1651
-85.491
-99.4181
-109.473
-113.065
-112.498
-106.968
-99.6623
-89.8706
-80.6706
-69.789
-60.4768
-47.9013
-30.9225
-16.169
-3.26506
4.35176
18.7249
27.9624
31.369
29.9472
23.6003
13.8074
2.27922
-4.37433
-14.5575
-26.6982
-29.8382
-31.1789
-30.2269
-27.2647
-22.7449
-17.0517
-10.5307
-3.5048
3.96258
12.2968
21.3732
27.0255
30.4498
38.0082
49.3946
56.1685
63.1635
70.148
77.2914
84.3474
91.8135
99.1292
0.371958
0.411445
0.43588
0.443806
0.434118
0.405363
0.356718
0.289666
0.207381
0.112996
0.0231591
-0.0498466
-0.104511
-0.135483
-0.0856306
0.0562264
0.192004
0.340516
0.475899
0.572585
0.577863
0.47825
0.285086
0.0114758
-0.349169
-0.707954
-0.91454
-0.993005
-0.866497
-0.527538
-0.0789567
0.441605
0.882221
0.982307
0.788416
0.480091
0.0317706
-0.5922
-0.838445
-0.679034
-0.186542
0.325441
0.416317
0.262219
0.130054
-0.233108
-0.134635
-0.0421754
-0.0612464
-0.0786872
-0.0606696
-0.0640083
-0.1489
-0.24046
-0.306139
-0.36457
-0.459737
-0.597858
-0.778166
-0.959117
-1.2008
-1.47617
-1.82401
-2.19884
-2.67111
-3.23275
-3.78752
-4.52272
-5.24726
-6.04875
-6.88947
-7.8345
-8.89243
-9.80401
-10.8602
-11.6767
-12.6167
-13.239
-13.8899
-14.3723
-14.585
-14.5688
-14.528
-14.004
-13.3813
-12.7981
-11.6923
-10.5464
-9.22364
-7.75165
-6.29981
-4.87516
-3.58877
-2.37542
-1.37436
-0.52791
0.0441681
0.509015
0.682955
0.637587
0.47131
0.202503
-0.263766
-0.764223
-1.08704
-1.65362
-1.81339
-2.49014
-2.85372
-3.30569
-4.06536
-4.49529
-4.90352
-5.3413
-5.62552
-5.86328
-5.91948
-6.32666
-6.60202
-7.04855
-8.07578
-9.47473
-11.3404
-12.5171
-15.0175
-19.5765
-25.6203
-34.4393
-45.3567
-59.8172
-76.1966
-92.4297
-106.151
-113.781
-116.309
-112.409
-105.793
-95.3816
-85.3806
-73.7776
-64.3516
-52.6611
-36.3478
-23.9105
-9.39748
-2.06253
9.95037
27.2346
36.6294
40.3095
37.705
29.4014
16.6377
1.35029
-7.41451
-20.7498
-35.7927
-40.4851
-43.3913
-43.0825
-40.3608
-35.8503
-30.0149
-23.1841
-15.6405
-7.6662
0.680724
9.68366
19.1374
25.5929
29.2631
37.4528
49.8308
56.7769
63.8877
70.9416
78.0719
85.0375
92.3365
99.3792
0.0677793
0.0665572
0.0597159
0.0513118
0.0418302
0.0319494
0.022943
0.0183232
0.021008
0.0326374
0.0415729
0.0562088
0.0767329
0.110731
0.16387
0.223403
0.281007
0.328246
0.358057
0.383751
0.33867
0.226361
0.0588725
-0.145073
-0.371993
-0.566269
-0.671808
-0.661655
-0.519369
-0.261827
0.0571848
0.371946
0.597728
0.64241
0.510259
0.261804
-0.0699234
-0.384533
-0.511875
-0.414884
-0.146179
0.154243
0.264321
0.223491
0.0881337
-0.105611
-0.117959
-0.0542931
-0.0132305
-0.0133297
-0.0166765
-0.0310893
-0.0756531
-0.119296
-0.161578
-0.183323
-0.219169
-0.275758
-0.353982
-0.429187
-0.523574
-0.621943
-0.741339
-0.87623
-1.03962
-1.22854
-1.41371
-1.64828
-1.87879
-2.13451
-2.393
-2.68234
-3.00251
-3.29407
-3.62542
-3.92225
-4.24587
-4.52564
-4.78124
-5.03157
-5.17174
-5.28922
-5.35432
-5.34833
-5.24211
-5.16123
-4.92738
-4.63081
-4.41301
-3.9397
-3.58075
-3.21347
-2.87635
-2.56175
-2.32704
-2.14623
-2.0162
-1.93395
-1.99483
-2.0538
-2.11748
-2.31756
-2.33617
-2.62649
-2.77566
-3.09595
-3.38089
-3.76828
-4.20024
-4.47744
-4.92465
-5.13706
-5.43001
-5.58094
-5.78408
-6.0074
-6.15054
-6.80207
-7.36079
-8.29484
-10.0892
-11.9531
-14.417
-16.8351
-22.0972
-29.395
-38.7522
-51.4658
-65.8564
-83.0748
-99.2789
-111.679
-118.16
-117.305
-112.159
-102.004
-91.2281
-78.4245
-67.1307
-56.0307
-40.8783
-28.1937
-16.2078
-7.58343
1.55145
20.41
34.4016
45.2546
49.5867
46.4262
36.0814
20.1756
0.96634
-10.0731
-26.7043
-45.1797
-52.0934
-55.383
-55.4907
-53.0974
-48.7442
-42.9743
-36.1527
-28.5265
-20.2814
-11.6316
-2.68822
6.69642
16.2535
23.1253
27.402
36.8942
49.3868
56.3204
63.5728
70.7188
77.857
84.7726
91.9236
98.7032
-0.0822195
-0.0976213
-0.110416
-0.120196
-0.125802
-0.125566
-0.117301
-0.098332
-0.0668741
-0.022452
0.0349845
0.120835
0.182119
0.261521
0.309105
0.340632
0.366867
0.374371
0.353341
0.306841
0.227003
0.117606
-0.0115411
-0.149903
-0.318786
-0.440551
-0.488913
-0.44942
-0.323501
-0.128273
0.0945202
0.293916
0.418366
0.42848
0.324448
0.140452
-0.0790443
-0.26038
-0.328449
-0.263321
-0.0989034
0.0820014
0.17227
0.159892
0.067001
-0.0507461
-0.0785105
-0.0440715
-0.00623058
0.0034487
-0.0053533
-0.0238655
-0.0560191
-0.0816563
-0.111621
-0.125895
-0.150802
-0.191064
-0.243616
-0.292006
-0.337622
-0.397491
-0.469639
-0.547693
-0.629592
-0.716397
-0.805813
-0.91205
-1.01735
-1.13442
-1.25227
-1.37594
-1.50863
-1.64265
-1.7909
-1.94004
-2.09182
-2.24128
-2.38133
-2.52551
-2.63439
-2.74978
-2.83919
-2.91647
-2.96256
-3.00472
-2.99851
-2.98277
-2.93484
-2.87651
-2.81747
-2.76151
-2.70609
-2.67872
-2.69076
-2.69686
-2.69869
-2.77695
-2.74312
-2.79611
-2.88773
-3.08943
-3.19652
-3.44938
-3.63664
-3.98189
-4.14558
-4.47648
-4.74173
-4.90423
-5.20424
-5.28203
-5.55176
-5.61546
-6.01234
-6.28078
-6.73694
-7.91009
-8.84275
-10.5263
-13.2634
-15.7194
-19.7682
-25.1222
-33.5155
-44.1207
-57.1945
-73.3859
-89.3061
-105.513
-116.402
-120.61
-118.707
-109.309
-98.2967
-84.0601
-71.8205
-59.0902
-43.8774
-31.1558
-20.6157
-11.2175
-4.31324
9.0395
28.6552
43.4439
54.5049
59.2896
55.6556
43.4553
24.4272
1.207
-12.1113
-32.0837
-53.8642
-61.706
-65.6521
-66.5625
-64.5569
-60.4404
-54.9559
-48.4466
-41.1385
-33.1795
-24.6941
-15.7981
-6.59392
2.83239
12.2438
19.4315
24.6727
36.2085
47.6887
54.7146
62.0985
69.3171
76.4469
83.3167
90.2913
96.8082
-0.130391
-0.147462
-0.160389
-0.168302
-0.170118
-0.164594
-0.15033
-0.125936
-0.0903711
-0.043133
0.015681
0.0863626
0.161515
0.247889
0.292878
0.343156
0.390325
0.389689
0.351208
0.262572
0.159597
0.0453667
-0.0745298
-0.185904
-0.283869
-0.343698
-0.352211
-0.303897
-0.204046
-0.0580396
0.0967307
0.223929
0.292498
0.284388
0.202317
0.0713985
-0.0708493
-0.178419
-0.213501
-0.167446
-0.0634532
0.0484212
0.112143
0.109772
0.0529404
-0.0212718
-0.0477776
-0.0302394
-0.00421755
0.00492492
-0.00371943
-0.0223933
-0.0479844
-0.0699027
-0.093211
-0.114033
-0.139506
-0.17039
-0.219073
-0.261109
-0.286507
-0.34447
-0.394089
-0.454452
-0.514405
-0.56447
-0.629158
-0.700239
-0.770035
-0.848412
-0.929219
-1.01147
-1.1037
-1.20049
-1.30133
-1.40306
-1.50536
-1.61141
-1.71705
-1.82617
-1.92657
-2.03319
-2.12972
-2.22046
-2.30258
-2.37689
-2.43322
-2.48265
-2.52429
-2.57344
-2.60534
-2.64223
-2.67402
-2.75689
-2.75609
-2.80365
-2.86492
-2.99206
-3.05988
-3.16538
-3.31052
-3.50255
-3.68329
-3.91222
-4.05757
-4.33626
-4.42048
-4.69611
-4.84904
-4.98281
-5.2472
-5.30542
-5.70551
-5.76251
-6.55065
-7.08511
-8.08316
-9.89851
-11.3621
-14.4978
-18.2264
-22.0726
-29.7852
-38.0181
-50.138
-63.8646
-79.7778
-97.0608
-110.229
-120.151
-121.936
-116.557
-106.856
-91.0772
-77.8702
-62.6457
-45.0438
-32.305
-22.0944
-12.334
-7.72572
2.33853
19.8557
35.2866
51.3398
63.5222
68.8781
64.9687
51.1668
29.2139
2.78816
-14.8367
-35.8453
-61.3208
-70.097
-74.6072
-75.4225
-73.0566
-69.2041
-64.1873
-58.1863
-51.4193
-44.0199
-36.0698
-27.6468
-18.8363
-9.72703
-0.478903
8.63042
15.7632
22.1481
35.5118
44.4675
52.1964
59.7136
67.0052
74.1386
80.9873
87.8354
94.1403
-0.110297
-0.124017
-0.133553
-0.138189
-0.137198
-0.129879
-0.115608
-0.0939554
-0.0648107
-0.0284442
0.0144853
0.0627497
0.114024
0.164838
0.208132
0.24114
0.258302
0.245626
0.221987
0.163568
0.0755468
-0.0271915
-0.133143
-0.225635
-0.268182
-0.282146
-0.259248
-0.198351
-0.10994
-0.00684649
0.0905208
0.162342
0.193064
0.177499
0.115687
0.0278061
-0.0590968
-0.118548
-0.132714
-0.0999282
-0.0358582
0.0309837
0.0715363
0.0730673
0.0417845
-0.0022498
-0.0228002
-0.0159536
-0.0012931
0.004012
-0.00416103
-0.0214782
-0.0435236
-0.0648321
-0.0871402
-0.111087
-0.139156
-0.171004
-0.212651
-0.251225
-0.288935
-0.33501
-0.379346
-0.436357
-0.494636
-0.524791
-0.586063
-0.649277
-0.707138
-0.773664
-0.844724
-0.903382
-0.969998
-1.05206
-1.13455
-1.21523
-1.30024
-1.39156
-1.48661
-1.58495
-1.68238
-1.78172
-1.87947
-1.97033
-2.05963
-2.14016
-2.21752
-2.29039
-2.37876
-2.40269
-2.44896
-2.51468
-2.58169
-2.69928
-2.77462
-2.86843
-2.97566
-3.10925
-3.24678
-3.3768
-3.53288
-3.6911
-3.84374
-4.02152
-4.13248
-4.37764
-4.44195
-4.72051
-4.83129
-5.01944
-5.30593
-5.472
-6.15729
-6.42947
-7.86187
-8.82649
-10.5547
-13.3544
-16.1662
-21.2034
-26.3888
-34.1208
-45.1467
-56.5848
-72.0811
-87.2105
-103.181
-117.086
-122.104
-122.757
-113.789
-98.9606
-83.5383
-65.7408
-46.3925
-32.9425
-22.2446
-12.6555
-8.02116
-1.36944
13.4763
27.3768
43.4462
59.2811
72.012
77.8788
73.8847
58.8114
34.2099
4.42059
-16.7777
-39.0423
-67.5516
-77.0822
-81.889
-82.8737
-80.9393
-77.1086
-72.2079
-66.5632
-60.3436
-53.6308
-46.4519
-38.8124
-30.7296
-22.2517
-13.4608
-4.49038
4.42352
11.442
19.2127
32.1816
40.1368
47.8035
55.325
62.5902
69.625
76.3498
82.9082
88.8914
-0.049639
-0.054992
-0.0578104
-0.05781
-0.0546948
-0.0482405
-0.0383276
-0.0249873
-0.00843812
0.0108918
0.0323336
0.0548929
0.0771272
0.097112
0.112586
0.1213
0.120766
0.108317
0.0836401
0.0457341
-0.00374127
-0.0598313
-0.116019
-0.163891
-0.180311
-0.187189
-0.155239
-0.097774
-0.0230705
0.0468578
0.101271
0.12998
0.128658
0.101636
0.0553345
-0.000333881
-0.0477327
-0.0746675
-0.0752043
-0.0515484
-0.0137072
0.023563
0.0465642
0.0488371
0.0336217
0.0102339
-0.00342476
-0.0027895
0.00285215
0.00349639
-0.00494175
-0.0207486
-0.0407994
-0.0622886
-0.0854893
-0.111466
-0.141443
-0.175148
-0.213673
-0.253704
-0.29505
-0.339058
-0.384176
-0.436568
-0.486754
-0.532693
-0.58651
-0.642093
-0.69692
-0.758478
-0.834951
-0.87042
-0.925961
-1.01355
-1.08726
-1.15193
-1.22904
-1.3187
-1.4092
-1.50286
-1.5923
-1.68347
-1.77394
-1.86259
-1.90701
-1.97352
-2.04817
-2.12575
-2.21753
-2.28234
-2.35314
-2.4416
-2.53883
-2.65726
-2.76996
-2.88034
-3.00085
-3.1141
-3.2419
-3.36116
-3.51389
-3.64213
-3.78909
-3.97304
-4.08802
-4.33991
-4.37853
-4.72421
-4.83432
-5.25139
-5.69882
-6.2604
-7.46243
-8.20633
-10.5924
-12.2735
-15.6172
-20.1608
-25.1737
-33.004
-41.3564
-53.4635
-66.919
-80.8852
-97.6557
-109.92
-121.652
-126.615
-119.304
-109.436
-90.7686
-68.6151
-45.7507
-30.5115
-20.8671
-10.9227
-7.95877
-1.03643
12.0094
23.4781
37.0964
52.115
67.3276
79.885
85.9178
81.7248
65.5342
38.6127
5.46849
-18.0873
-42.5745
-73.0043
-82.7033
-87.4959
-88.3185
-86.3376
-82.5817
-77.7946
-72.4501
-66.7675
-60.8167
-54.5836
-48.0165
-41.057
-33.6688
-25.8568
-17.671
-9.21531
-0.604116
6.37077
15.4067
26.9831
34.4284
42.088
49.541
56.6665
63.4727
69.9084
75.9729
81.5021
-0.00523628
-0.00303738
-0.000261064
0.00313685
0.00713404
0.011671
0.0166455
0.0219053
0.0272442
0.0323973
0.0370308
0.0407276
0.0429821
0.0432236
0.0408668
0.0353677
0.0262739
0.0133475
-0.00319139
-0.0225672
-0.0433085
-0.0632088
-0.079271
-0.0877768
-0.0850349
-0.0692138
-0.036014
-0.0104219
0.0342031
0.0696423
0.091389
0.0934548
0.0754879
0.0431067
0.00949661
-0.0191033
-0.0380746
-0.0437857
-0.03623
-0.0186408
0.00319676
0.0225278
0.0340029
0.035176
0.0279865
0.0164652
0.00829584
0.00617876
0.00604872
0.00276909
-0.00628955
-0.0210062
-0.0397946
-0.0612525
-0.0852074
-0.112205
-0.142715
-0.17673
-0.214168
-0.253762
-0.295524
-0.33927
-0.384816
-0.433434
-0.482646
-0.531982
-0.583346
-0.636009
-0.689335
-0.747003
-0.8066
-0.858786
-0.91562
-0.987076
-1.06944
-1.11062
-1.181
-1.28773
-1.36815
-1.45792
-1.52876
-1.58398
-1.65588
-1.73097
-1.7921
-1.85948
-1.93362
-2.01303
-2.09606
-2.18733
-2.27784
-2.38057
-2.45809
-2.5491
-2.64091
-2.73895
-2.85411
-2.94771
-3.11581
-3.24792
-3.41388
-3.52927
-3.70675
-3.85213
-4.01374
-4.29431
-4.47723
-5.03366
-5.37542
-6.31576
-7.17199
-8.56533
-10.594
-12.3234
-16.6152
-19.859
-26.1152
-33.23
-41.6338
-54.0654
-63.8857
-80.7062
-92.8348
-106.745
-119.961
-123.444
-128.012
-115.205
-95.7141
-62.9013
-42.8588
-28.5355
-16.6016
-10.4437
-6.39419
1.56968
15.6192
24.9364
35.5097
47.7716
61.513
75.3891
86.8556
92.3484
87.7423
70.3597
41.5264
5.33369
-18.6863
-46.8015
-77.7237
-86.8907
-91.2996
-91.7145
-89.4087
-85.4955
-80.7299
-75.5756
-70.2964
-64.9886
-59.6358
-54.1567
-48.4534
-42.4328
-36.0207
-29.1815
-21.9166
-14.2832
-6.33302
0.586166
9.976
19.493
26.853
34.4368
41.764
48.7388
55.3351
61.4701
67.0638
72.1977
0.00389321
0.00685656
0.00969136
0.0123333
0.014683
0.0166369
0.0180896
0.0189362
0.0190754
0.0184129
0.0168643
0.0143598
0.0108517
0.00632698
0.000823711
-0.00555012
-0.0125927
-0.0199775
-0.0272212
-0.033669
-0.038505
-0.0407944
-0.0395759
-0.0340523
-0.0238941
-0.00954396
0.00759147
0.024475
0.039155
0.0447448
0.0469926
0.0369561
0.0192813
-0.000993714
-0.0172474
-0.0251197
-0.025999
-0.0209225
-0.0110391
0.0012777
0.0131906
0.022083
0.0261271
0.0254857
0.0214637
0.0156893
0.010913
0.00796994
0.0048944
-0.000768048
-0.0104803
-0.0243956
-0.0418917
-0.0623195
-0.0854752
-0.111538
-0.140722
-0.173011
-0.208172
-0.246451
-0.286776
-0.328942
-0.372843
-0.418536
-0.46548
-0.513366
-0.562305
-0.612168
-0.663003
-0.71574
-0.769241
-0.822322
-0.875983
-0.937
-0.99869
-1.06273
-1.15257
-1.19894
-1.26843
-1.36864
-1.40837
-1.46214
-1.51896
-1.58032
-1.64126
-1.69833
-1.76282
-1.83066
-1.90675
-1.97751
-2.05089
-2.12273
-2.22897
-2.33556
-2.43397
-2.54322
-2.65718
-2.78161
-2.91643
-3.03496
-3.22338
-3.37867
-3.67091
-3.92468
-4.33377
-4.87055
-5.52586
-6.59937
-7.65489
-9.55765
-11.3992
-14.4817
-18.2584
-22.4513
-29.6519
-35.7869
-46.5248
-55.6419
-68.8633
-82.4533
-90.4531
-108.404
-114.624
-122.256
-125.037
-118.64
-78.643
-55.8328
-35.5442
-19.3014
-8.11615
-6.3963
-1.09303
10.793
20.7438
29.6043
38.7494
48.2308
58.8231
70.5517
82.3242
91.9614
96.117
90.6821
72.6149
42.5509
4.6534
-18.3599
-50.9057
-80.1136
-88.9738
-92.9424
-92.7959
-90.156
-86.0175
-81.1565
-76.0723
-71.0211
-66.1153
-61.3538
-56.6686
-51.9501
-47.0845
-41.9842
-36.5686
-30.792
-24.6282
-18.1036
-11.2465
-4.82227
3.5776
11.0721
18.0338
25.0726
31.9054
38.4453
44.6161
50.267
55.324
60.0401
-0.000393378
-7.16814e-05
0.000177922
0.000327809
0.000352915
0.000230284
-6.0381e-05
-0.000536164
-0.00120972
-0.00208794
-0.00317036
-0.00444661
-0.00589292
-0.00746759
-0.00910588
-0.0107146
-0.0121675
-0.0133032
-0.0139291
-0.0138346
-0.0128182
-0.0107305
-0.00753139
-0.00335549
0.00143174
0.00621814
0.0101507
0.0122563
0.011668
0.00763536
0.00354732
-0.00425699
-0.0112175
-0.0156558
-0.0165186
-0.0142853
-0.00984281
-0.00397836
0.00227174
0.00788046
0.011985
0.0140815
0.0141828
0.0126268
0.010134
0.00722975
0.00455146
0.00181469
-0.00221213
-0.00867495
-0.018177
-0.0308052
-0.0463428
-0.0644786
-0.0850361
-0.108088
-0.133805
-0.162218
-0.193121
-0.226026
-0.260893
-0.297581
-0.335934
-0.375748
-0.416852
-0.459069
-0.502164
-0.546034
-0.590781
-0.636515
-0.683032
-0.730316
-0.778268
-0.832735
-0.885467
-0.940547
-1.00424
-1.0785
-1.11526
-1.18501
-1.24867
-1.27732
-1.31572
-1.35618
-1.39989
-1.46423
-1.53288
-1.60395
-1.68683
-1.76501
-1.82988
-1.90856
-1.97301
-2.06568
-2.15939
-2.2857
-2.42897
-2.60556
-2.84078
-3.10354
-3.50901
-3.95533
-4.66134
-5.3938
-6.51995
-7.87871
-9.63678
-12.0797
-14.8538
-19.0011
-23.3047
-29.6197
-36.2648
-44.7087
-54.821
-64.5777
-77.3351
-85.4046
-99.0751
-105.629
-108.239
-117.829
-122.018
-98.7249
-68.9926
-44.4081
-19.7793
-9.60692
-3.85317
4.61443
10.1872
20.6997
29.7382
38.0084
45.5048
52.9122
60.7029
69.0555
77.975
86.9925
94.28
96.6908
90.401
71.8673
42.3578
4.3007
-18.3689
-52.7991
-80.708
-89.3718
-93.2944
-93.0181
-89.893
-84.8844
-79.8781
-74.7596
-69.817
-65.1464
-60.7165
-56.4755
-52.3369
-48.188
-43.9298
-39.4856
-34.7949
-29.8181
-24.5422
-18.9879
-13.267
-7.69127
-1.20516
4.68826
10.7337
16.7427
22.6087
28.2583
33.5835
38.3743
42.719
46.9838
-0.003797
-0.00430527
-0.00476572
-0.00517649
-0.00553213
-0.00583097
-0.00607503
-0.00627047
-0.00642641
-0.00655222
-0.0066558
-0.00674143
-0.0068099
-0.00685299
-0.00685643
-0.00680042
-0.00666318
-0.0064274
-0.00608939
-0.00567036
-0.00522716
-0.00485673
-0.00468862
-0.00486668
-0.00552845
-0.00625639
-0.0076839
-0.00980269
-0.0114674
-0.0129362
-0.0138492
-0.0140134
-0.0133744
-0.0123141
-0.0109908
-0.0095339
-0.00797823
-0.00650342
-0.0052903
-0.00453135
-0.0043894
-0.00493635
-0.00610425
-0.00768948
-0.00941395
-0.0110721
-0.0125224
-0.0147607
-0.0189431
-0.0252891
-0.0333672
-0.0432334
-0.0552666
-0.0692166
-0.0844712
-0.101158
-0.119907
-0.14116
-0.16438
-0.188709
-0.214073
-0.241081
-0.269616
-0.299245
-0.330381
-0.362367
-0.39404
-0.426511
-0.460225
-0.494638
-0.529552
-0.566113
-0.603966
-0.640652
-0.673918
-0.740032
-0.768094
-0.812908
-0.880572
-0.934685
-0.995943
-1.05008
-1.10538
-1.16404
-1.23098
-1.3051
-1.39016
-1.48085
-1.61529
-1.70671
-1.72694
-1.82435
-1.9467
-2.15498
-2.39043
-2.73501
-3.16193
-3.72383
-4.4732
-5.38718
-6.67318
-8.14081
-10.219
-12.6412
-15.8542
-19.7446
-24.4866
-30.2387
-36.7344
-44.6306
-52.6913
-61.7468
-70.5354
-81.097
-89.0099
-96.2855
-100.965
-101.211
-101.327
-100.208
-89.1714
-62.6524
-37.9135
-13.1722
-5.08324
3.51037
10.7913
17.9291
30.3153
40.1448
47.0571
51.6751
55.5053
60.5253
65.5155
70.7474
76.3653
82.2867
87.9372
92.465
93.2159
86.8853
69.3452
39.0243
2.66446
-19.1574
-55.5942
-77.2125
-86.292
-90.1594
-90.2966
-87.8962
-83.828
-78.7087
-73.5972
-68.6242
-63.907
-59.4934
-55.3735
-51.473
-47.7098
-44.0018
-40.255
-36.3759
-32.312
-28.0331
-23.5332
-18.7433
-13.831
-8.60131
-3.17038
1.73977
6.68672
11.5654
16.3217
20.8946
25.1716
28.9528
32.4816
36.3009
-0.00174351
-0.00208094
-0.00258982
-0.00326155
-0.00407771
-0.00501357
-0.00603647
-0.00710198
-0.00814818
-0.00910075
-0.00988286
-0.0102864
-0.0105758
-0.0104134
-0.00990512
-0.00911151
-0.00815185
-0.00720015
-0.00646662
-0.0061611
-0.00644103
-0.00734781
-0.00864242
-0.0101691
-0.0116942
-0.0129462
-0.0136872
-0.0137109
-0.0133853
-0.0126278
-0.0116414
-0.0108784
-0.0108488
-0.0118337
-0.0134603
-0.015349
-0.0169268
-0.0176723
-0.0173559
-0.0161546
-0.014667
-0.0138691
-0.0147629
-0.0177688
-0.0226339
-0.0269561
-0.0262781
-0.0255784
-0.0295401
-0.0368432
-0.0422238
-0.0470505
-0.0563594
-0.0689577
-0.0788905
-0.0872774
-0.0974846
-0.113906
-0.13244
-0.147748
-0.160707
-0.178122
-0.196814
-0.216263
-0.234301
-0.250268
-0.272949
-0.294735
-0.3188
-0.341854
-0.355656
-0.390273
-0.416005
-0.439928
-0.461284
-0.489394
-0.517317
-0.548666
-0.58398
-0.622797
-0.66722
-0.714082
-0.771936
-0.834924
-0.92051
-1.02386
-1.15857
-1.33977
-1.53638
-1.83168
-2.22694
-2.76017
-3.33105
-4.1536
-5.07459
-6.3846
-7.9379
-9.93355
-12.3982
-15.3456
-19.0719
-23.2082
-28.4043
-34.0323
-40.5505
-47.6666
-54.386
-62.1026
-69.494
-76.5113
-80.9915
-86.1701
-87.7905
-87.6398
-84.4748
-76.4148
-72.5201
-60.9745
-48.8798
-30.3522
-12.8247
-5.28552
8.59271
18.6547
28.1778
41.7507
52.729
59.7422
63.3108
64.6248
64.5498
64.3054
65.937
68.4912
71.4452
74.8816
78.53
82.41
86.3276
87.734
82.4047
67.1275
40.15
6.63851
-14.5623
-47.7452
-69.6477
-78.4543
-83.1838
-84.5136
-83.4576
-80.7518
-76.9827
-72.5478
-67.9676
-63.427
-59.0658
-54.935
-51.0435
-47.3529
-43.808
-40.3557
-36.9229
-33.4371
-29.8532
-26.1255
-22.2387
-18.131
-13.6967
-9.46329
-4.93131
-0.821561
3.18076
7.12927
10.9725
14.6532
18.0698
21.0398
23.7849
27.2442
0.00511869
0.00455829
0.00331392
0.00145112
-0.000916523
-0.00363119
-0.0064811
-0.00913288
-0.0111718
-0.0128078
-0.0139362
-0.0144813
-0.0144147
-0.0137609
-0.0126193
-0.0111667
-0.00964953
-0.00835878
-0.00758283
-0.00754267
-0.00833561
-0.00978198
-0.0117561
-0.0139576
-0.0158603
-0.0168887
-0.0166072
-0.0149877
-0.0126424
-0.00954587
-0.0066604
-0.00510005
-0.00580062
-0.00909396
-0.014419
-0.0205465
-0.0258503
-0.0287613
-0.0284482
-0.0246752
-0.0181262
-0.0117074
-0.00979773
-0.0148322
-0.0293156
-0.0436589
-0.0352419
-0.0263366
-0.0317116
-0.0459624
-0.0471773
-0.040777
-0.0501912
-0.0717559
-0.0756947
-0.07308
-0.0716478
-0.0860089
-0.109739
-0.117769
-0.113851
-0.128841
-0.136898
-0.148356
-0.160189
-0.161788
-0.169062
-0.178591
-0.183768
-0.186775
-0.190291
-0.197439
-0.20185
-0.200031
-0.192959
-0.194292
-0.200077
-0.212642
-0.225717
-0.252008
-0.285683
-0.342057
-0.422177
-0.546062
-0.730512
-0.981264
-1.32213
-1.78205
-2.39395
-3.19121
-4.17557
-5.51155
-7.06866
-9.10576
-11.4248
-14.3815
-17.7
-21.654
-25.9499
-30.7342
-35.8126
-40.9079
-47.0473
-52.4228
-58.301
-62.6982
-67.0919
-70.0821
-71.7926
-72.3339
-70.724
-68.8709
-64.6879
-58.7885
-51.4843
-40.4137
-42.7697
-21.2705
-10.7965
7.46662
14.2345
21.9238
35.9868
49.1942
60.5678
70.035
75.8722
77.5042
75.982
73.0732
69.7984
67.5279
67.8384
68.8839
70.6519
73.1992
76.7971
80.2351
82.7327
80.6776
69.3969
46.8514
16.8193
-8.61003
-31.5497
-59.8612
-69.1614
-74.9449
-77.6854
-78.1158
-76.8512
-74.391
-71.158
-67.3744
-63.3684
-59.3071
-55.3239
-51.486
-47.8123
-44.3058
-40.9349
-37.6623
-34.4397
-31.2185
-27.9567
-24.613
-21.1678
-17.6068
-13.7033
-10.394
-6.78204
-3.31439
0.0446169
3.33857
6.53062
9.56442
12.35
14.757
16.9069
19.9627
0.00637296
0.00663226
0.0060375
0.00469679
0.0027581
0.000404934
-0.00209837
-0.0043865
-0.00683131
-0.00928069
-0.0111819
-0.0122778
-0.0124829
-0.0118415
-0.010533
-0.00887846
-0.00732157
-0.00637711
-0.00654194
-0.00817981
-0.0114015
-0.0159726
-0.0215454
-0.0269641
-0.0307713
-0.0315582
-0.0284378
-0.0214619
-0.0117565
-0.00130096
0.00737107
0.0117358
0.0100365
0.0020761
-0.0100458
-0.0242874
-0.0378484
-0.0470948
-0.0506816
-0.0447043
-0.0242508
0.00262325
0.0175518
0.0131523
-0.0312031
-0.0886408
-0.0447704
-0.0106254
-0.024233
-0.0657411
-0.064231
0.00598153
-0.019525
-0.0961968
-0.0776373
-0.0535499
-0.0241971
-0.0257338
-0.0916083
-0.0799652
-0.0269156
-0.022067
-0.0464727
-0.0476926
0.00102232
0.0431871
0.063542
0.0793572
0.128636
0.189017
0.251653
0.302661
0.377346
0.455824
0.540482
0.614125
0.694256
0.749041
0.806045
0.795504
0.761556
0.612465
0.389849
-0.00563764
-0.547334
-1.3272
-2.30667
-3.58292
-5.1608
-7.04644
-9.2539
-11.8355
-14.6596
-17.8505
-21.3181
-25.2046
-29.2908
-33.4802
-37.48
-41.5656
-45.2774
-48.8485
-52.0439
-53.9308
-56.1998
-56.6183
-57.6897
-56.2846
-54.5366
-52.2583
-47.4001
-42.3573
-38.5248
-31.245
-19.5232
-14.6456
-5.12606
13
19.6229
28.8664
41.5771
52.9042
64.2346
75.3235
84.1223
89.132
89.3297
85.4846
79.6013
73.6427
68.5453
65.3681
64.7129
65.4281
67.3328
70.2982
74.2352
77.3219
77.415
70.4122
52.8901
26.9686
0.313688
-18.1556
-45.8078
-58.2922
-65.1328
-69.2206
-71.126
-71.335
-70.2679
-68.2733
-65.6396
-62.518
-59.1203
-55.6009
-52.0639
-48.5846
-45.1946
-41.9197
-38.7527
-35.6722
-32.6508
-29.6568
-26.6573
-23.6237
-20.5455
-17.4274
-14.2038
-11.0886
-8.32979
-5.25829
-2.34858
0.489103
3.21263
5.76529
8.07383
10.1062
12.0042
14.7012
-0.000286177
0.00321754
0.00578448
0.00753326
0.00856291
0.00901044
0.0090224
0.00857142
0.00740202
0.00663304
0.0066389
0.00765603
0.00969448
0.0124795
0.0154096
0.0175797
0.017864
0.0150472
0.00808722
-0.00353181
-0.0194316
-0.0381372
-0.0569568
-0.0720073
-0.0791491
-0.0752353
-0.0596954
-0.0354156
-0.00725231
0.0189584
0.0380815
0.0465169
0.0425776
0.026666
0.00937397
-0.0155866
-0.0473675
-0.0755556
-0.106795
-0.119151
-0.0574165
0.0406637
0.102697
0.114965
-0.0007562
-0.263824
-0.00337846
0.0847773
0.018006
-0.10924
-0.167432
0.16899
0.0931046
-0.216501
-0.194278
0.11367
0.263984
0.0597316
-0.100972
0.0344319
0.297071
0.351484
0.299272
0.358024
0.58284
0.789447
0.947736
1.10401
1.38133
1.68746
1.99915
2.25618
2.56933
2.85453
3.15351
3.33053
3.48218
3.48699
3.42497
3.13255
2.69402
1.949
1.00421
-0.26398
-1.73237
-3.49906
-5.45865
-7.74788
-10.2099
-12.9034
-15.7211
-18.673
-21.6788
-24.7834
-27.8042
-30.8787
-33.6276
-36.2022
-38.4432
-40.6489
-42.4885
-44.0171
-44.5741
-44.0987
-44.3441
-42.2728
-40.5955
-38.1167
-34.7233
-31.3817
-22.6062
-19.1229
-13.3178
-3.39716
5.34176
14.6262
29.2482
36.6713
47.1066
57.3482
67.9881
77.7466
87.1824
95.8247
100.97
100.422
94.7408
85.9995
76.8861
69.14
63.4011
60.192
59.4961
60.78
63.5904
67.3605
71.1842
72.8966
69.4196
57.0466
35.8859
10.7696
-7.5782
-28.4276
-47.3101
-54.1287
-59.3675
-62.6993
-64.3761
-64.7011
-63.9908
-62.5146
-60.4715
-57.9969
-55.2235
-52.2764
-49.2353
-46.1701
-43.1279
-40.1407
-37.2223
-34.3668
-31.5624
-28.7904
-26.0309
-23.2676
-20.4974
-17.7268
-14.977
-12.0739
-9.67384
-6.96467
-4.33883
-1.77637
0.663971
2.9205
4.97484
6.91491
9.04356
11.3337
-0.0617931
-0.0533766
-0.0445145
-0.0349731
-0.0245578
-0.0130197
-0.000113313
0.0143549
0.0304929
0.0483193
0.0675635
0.087439
0.106537
0.122919
0.133835
0.136273
0.127552
0.105072
0.0674365
0.0156547
-0.0458516
-0.110202
-0.16833
-0.206129
-0.212238
-0.18112
-0.118762
-0.048078
0.0155495
0.0597668
0.0808395
0.0859742
0.0822953
0.0580646
0.0925834
0.0657507
-0.0106037
-0.0947428
-0.26185
-0.435239
-0.148454
0.152135
0.396766
0.438658
0.150812
-0.966501
0.104502
0.911639
-0.177136
-1.15701
-0.127942
1.21669
0.683049
-0.721421
-0.631937
0.692269
1.29886
0.615632
0.13653
0.71271
1.6801
1.98601
1.98621
2.29091
3.03062
3.70805
4.22475
4.68042
5.22967
5.73864
6.10736
6.28237
6.36093
6.28429
6.10446
5.71048
5.19467
4.43824
3.50509
2.30446
0.919489
-0.725828
-2.50817
-4.46951
-6.56115
-8.7633
-11.0602
-13.467
-15.8075
-18.2174
-20.5281
-22.8294
-25.0793
-27.3031
-29.2116
-31.0164
-32.2434
-33.5057
-34.1414
-34.6364
-34.7844
-34.4809
-33.6395
-31.6817
-30.5253
-25.6148
-23.4479
-19.707
-13.7436
-8.23324
-0.669456
6.52113
13.8222
23.3848
32.1683
42.7754
52.7412
63.3387
72.764
81.8143
90.72
98.4863
105.983
111.59
111.874
105.353
93.8518
81.2795
70.2993
62.0137
56.605
54.0883
54.1444
56.3013
59.9448
64.0845
67.1037
66.3471
58.5651
42.2842
20.9127
0.683668
-13.3333
-33.5935
-42.3085
-48.2869
-52.8714
-56.0699
-57.9197
-58.5596
-58.247
-57.2383
-55.7273
-53.8402
-51.6619
-49.2809
-46.7583
-44.1447
-41.4948
-38.8463
-36.2215
-33.6296
-31.0696
-28.5341
-26.0156
-23.5064
-21.0072
-18.5186
-16.0418
-13.5784
-10.967
-8.72269
-6.25937
-3.83222
-1.49065
0.678339
2.75723
4.97628
7.73195
9.87159
-0.401198
-0.405077
-0.395582
-0.370445
-0.327987
-0.267402
-0.189324
-0.0958058
0.0100884
0.124382
0.242311
0.356157
0.455516
0.532992
0.574457
0.569039
0.516793
0.41246
0.255637
0.0598448
-0.149402
-0.339589
-0.504598
-0.571505
-0.521812
-0.359337
-0.117541
0.0325085
0.107588
0.0992301
0.00909569
-0.040695
0.0672081
0.254311
0.612731
0.516319
0.341585
-0.0580699
-0.719335
-1.9173
-0.360362
0.400854
1.9733
3.42535
-1.82282
-4.73824
1.74768
4.97348
-0.70397
-4.83789
-0.245723
5.02107
2.96051
-1.69125
-1.28533
2.57942
4.4049
3.20438
2.28998
3.28467
4.88915
5.53375
5.64248
5.88041
6.44382
6.90307
7.12696
7.14031
6.98663
6.71691
6.23895
5.63611
4.85358
3.98667
2.93
1.80367
0.463351
-0.882165
-2.47688
-4.03094
-5.71376
-7.48586
-9.22662
-11.0631
-12.99
-14.8993
-16.8601
-18.7624
-20.5376
-22.2303
-23.817
-25.1776
-26.3146
-27.4447
-28.2283
-28.8678
-28.8558
-28.8989
-27.6909
-27.003
-25.6609
-23.3161
-20.7176
-17.3077
-13.8164
-8.64377
-3.39319
2.22728
8.86393
16.0391
24.2254
32.6468
41.2784
50.8333
59.9379
70.0896
77.7719
89.2184
96.4916
103.632
111.057
116.714
122.044
123.966
118.187
105.169
88.9488
73.8646
62.1635
54.2476
49.7947
48.377
49.4365
52.3877
56.4149
60.1317
61.3731
57.2766
45.6092
28.1112
9.29408
-4.22622
-18.1515
-31.1042
-36.4649
-41.6021
-46.0694
-49.6309
-52.0714
-53.2754
-53.4102
-52.7656
-51.6371
-50.2174
-48.5391
-46.6468
-44.6107
-42.4466
-40.1957
-37.9065
-35.5999
-33.2953
-31.0026
-28.7196
-26.4508
-24.1925
-21.9475
-19.711
-17.4699
-15.2052
-12.906
-10.4284
-8.30045
-5.95982
-3.53957
-1.2695
1.10256
3.98834
7.84438
10.1849
-1.54485
-1.64301
-1.67266
-1.62451
-1.48816
-1.25625
-0.936191
-0.548947
-0.119189
0.325149
0.775852
1.19487
1.50958
1.76061
1.84358
1.6992
1.46975
1.1158
0.55406
-0.050257
-0.673019
-1.18707
-1.42138
-1.27573
-0.81187
-0.155877
0.693932
0.461028
0.202448
-0.346737
-1.36795
-1.48805
-0.167235
1.33215
3.16449
4.45494
1.6976
-1.0569
-6.40014
-8.93217
-0.530254
4.00241
13.6713
13.8594
-15.3036
-19.3058
9.99342
17.868
-1.10376
-11.598
-1.08046
9.36547
6.97561
0.868461
0.658528
4.07824
5.95041
5.4589
4.65714
4.78257
5.30474
5.38577
5.14516
4.81048
4.47174
4.0964
3.49081
2.81875
1.95498
1.16686
0.207603
-0.72626
-1.81185
-2.92664
-4.27381
-5.63228
-7.17216
-8.6286
-10.348
-11.7943
-13.5844
-15.1634
-16.592
-18.2303
-19.7804
-21.2061
-22.5816
-23.819
-24.879
-25.6968
-26.5057
-26.644
-26.7063
-26.6455
-26.0687
-25.214
-23.7595
-22.0381
-19.5775
-16.7454
-13.4542
-9.50597
-4.96333
0.255326
5.84506
12.4054
19.4488
26.8654
34.8767
43.334
52.3431
61.5097
70.7912
80.2864
89.2852
98.4729
106.797
112.61
122.764
128.424
131.579
134.404
137.366
134.826
121.847
102.173
82.0672
65.6707
54.2449
47.3484
44.1448
43.8521
45.7142
48.99
52.6642
54.9847
53.4976
45.8516
32.028
15.8789
1.68043
-7.4725
-19.7623
-25.4252
-29.8134
-34.3164
-38.9809
-43.3382
-46.9638
-49.2822
-50.1486
-49.8487
-48.8513
-47.6701
-46.3162
-44.7475
-43.0456
-41.2413
-39.3254
-37.3391
-35.3164
-33.2673
-31.2222
-29.176
-27.14
-25.1184
-23.1073
-21.1098
-19.0956
-17.0277
-14.876
-12.6756
-10.1658
-8.27264
-5.59163
-3.09672
-0.235244
3.61794
9.01459
11.9053
-6.76671
-6.99785
-6.95771
-6.6091
-5.87317
-4.64482
-2.99017
-1.12014
0.769773
2.40262
3.95421
5.27463
5.5724
6.0119
5.48817
3.17571
2.35899
0.830585
-2.50714
-3.69695
-4.38237
-3.87127
-2.2044
0.506169
3.64842
6.24737
6.38956
3.38611
-4.41507
-13.1134
-15.8176
-11.3293
1.06483
15.2614
28.2395
27.4855
7.13915
-20.8367
-47.11
-38.8487
1.23322
41.6165
62.8013
16.4027
-48.7317
-32.0763
16.3683
22.3374
2.87981
-6.80962
-0.89534
5.79472
5.32249
2.21251
1.49235
2.55447
3.05083
2.45058
1.68314
1.31073
1.15636
0.752434
0.285668
-0.485765
-1.26699
-2.08208
-3.01925
-4.07645
-5.39258
-6.40163
-7.89898
-9.0527
-10.3439
-11.6606
-13.3513
-14.8119
-16.3646
-17.819
-19.5033
-20.9878
-22.5568
-23.5596
-24.7554
-26.3588
-27.3233
-28.1228
-28.7617
-29.1462
-29.2554
-29.0134
-28.4883
-27.5161
-26.1096
-24.366
-22.1145
-19.4067
-16.1014
-12.3304
-7.93748
-2.97163
2.55223
8.65934
15.372
22.6875
30.4627
38.8797
47.7087
56.8568
66.3402
76.0197
85.8751
95.6186
105.186
114.466
123.007
131.12
138.104
143.389
147.677
149.961
151.254
157.768
158.389
147.225
125.594
98.9612
75.6025
58.6418
48.0305
42.4061
40.4144
40.9554
43.1157
45.9313
48.2776
48.1773
43.4271
33.028
19.2624
6.17052
-2.69144
-10.6569
-17.1378
-19.6792
-22.5397
-26.4417
-31.3623
-36.7789
-42.2806
-46.8526
-49.3915
-49.9262
-48.852
-47.4282
-46.2157
-45.0104
-43.5261
-41.8098
-39.9596
-37.9954
-36.0054
-33.9793
-31.9623
-29.9801
-28.0117
-26.1047
-24.2092
-22.3825
-20.5545
-18.6734
-16.7241
-14.6757
-12.0822
-10.3078
-7.42043
-4.63905
-1.18531
3.79289
11.0648
14.7845
-29.3914
-28.4764
-25.2786
-20.4353
-13.7081
-4.31103
7.38965
19.3481
29.0972
35.47
38.0943
36.6345
30.2481
19.0728
4.52393
-12.429
-28.8732
-42.7565
-50.1609
-43.4336
-25.9466
4.23925
37.5887
64.2918
79.2821
68.4126
30.4567
-30.1197
-96.1649
-128.092
-102.063
-28.1337
60.5476
125.584
130.018
67.8387
-25.6572
-98.8596
-105.998
-46.4655
31.2475
72.8568
53.3371
-5.06445
-37.3417
-16.0084
10.2484
10.8319
0.3545
-3.71385
-0.599865
1.82925
0.925213
-0.934748
-1.44569
-1.30416
-1.47017
-2.32596
-3.34328
-4.05191
-4.6767
-5.54823
-6.42048
-7.89823
-8.96135
-10.1127
-11.3824
-13.069
-14.8326
-16.1175
-18.4296
-19.3962
-20.9351
-22.7381
-25.1512
-26.5937
-28.1802
-29.6849
-31.2639
-32.4757
-33.8766
-34.8581
-35.5408
-36.1922
-36.4956
-36.4507
-36.0593
-35.2494
-34.0014
-32.2528
-30.0026
-27.2101
-23.8329
-19.9077
-15.3584
-10.2029
-4.38105
2.04946
9.13007
16.8489
25.1799
34.0849
43.5486
53.524
63.9062
74.6914
85.6982
96.8329
108.006
119.052
129.865
140.178
149.883
158.812
166.633
173.358
178.577
182.31
183.958
182.681
182.181
184.281
180.874
162.734
132.697
100.289
73.3592
55.599
45.581
40.9315
39.709
40.4166
41.891
43.1779
42.8742
39.4903
31.8357
20.6627
8.91257
-0.235463
-5.77111
-11.5329
-13.4609
-14.4404
-15.9085
-18.4849
-22.5324
-28.7623
-36.8687
-45.4005
-51.7643
-54.8404
-55.7607
-53.5362
-50.5552
-49.0129
-47.4122
-45.5696
-43.5218
-41.3186
-39.0361
-36.7098
-34.345
-32.0789
-29.8131
-27.6712
-25.5427
-23.5749
-21.6676
-19.8023
-17.9134
-15.7833
-13.1641
-11.2806
-8.13635
-4.99104
-0.877224
5.29441
14.5425
19.3325
-195.594
-146.328
-74.8644
14.4139
115.181
214.863
302.188
364.852
388.32
365.995
300.486
196.287
64.4797
-80.8426
-222.637
-343.262
-419.388
-421.688
-324.874
-126.156
116.167
342.564
470.585
457.975
312.302
52.7067
-223.355
-393.489
-396.183
-237.36
-11.0254
163.403
216.739
158.326
55.939
-23.2423
-58.0573
-62.0478
-45.6979
-11.6989
23.5536
36.4992
19.4746
-10.6191
-21.0715
-6.26096
4.73875
2.21025
-3.22449
-4.6023
-3.15738
-2.77849
-3.99017
-5.50751
-6.20259
-6.849
-7.55397
-9.07713
-10.5941
-11.6401
-12.8481
-14.3749
-16.171
-18.7511
-19.8804
-21.6694
-23.7768
-26.6064
-28.7288
-30.7248
-33.1362
-35.2399
-37.3864
-39.5124
-41.6999
-43.6038
-45.4056
-46.9783
-48.3842
-49.4088
-50.2288
-50.6492
-50.6012
-50.1709
-49.25
-47.7829
-45.7303
-43.0254
-39.6401
-35.521
-30.6464
-25.0118
-18.589
-11.3851
-3.37047
5.43058
15.0253
25.3668
36.4408
48.2029
60.5949
73.5366
86.9517
100.735
114.759
128.906
142.973
156.825
170.288
183.163
195.262
206.298
216.112
224.53
231.273
236.104
238.985
240.173
238.14
232.687
229.51
229.261
220.133
191.811
149.88
108.125
76.929
57.8453
47.9167
43.7539
42.7454
42.9215
42.8447
41.3775
37.4566
30.4279
20.7105
10.2461
1.48626
-3.57811
-7.98315
-9.38636
-9.08961
-8.54213
-8.59073
-9.99068
-13.5633
-19.8013
-28.4823
-41.6682
-56.2047
-65.7232
-69.3942
-68.735
-64.9819
-62.3785
-60.8263
-58.7964
-56.313
-53.4487
-50.2832
-46.8922
-43.3927
-39.8751
-36.3609
-32.9489
-29.6186
-26.4051
-23.4528
-20.8983
-17.9909
-14.8545
-12.2304
-9.15832
-5.54335
-1.68685
3.32426
10.8073
21.797
27.789
177.294
697.153
1222.02
1688.04
2029.62
2169.09
2067.59
1723.54
1176.17
512.741
-164.582
-771.299
-1240.78
-1530.2
-1614.82
-1472.34
-1086.14
-477.606
248.228
897.984
1272.97
1266.26
910.087
339.073
-240.88
-630.473
-719.406
-521.026
-172.766
138.212
278.497
229.586
84.2313
-35.3449
-66.8044
-36.1316
-7.18097
-7.96058
-15.367
-4.34489
14.7591
17.4063
0.481098
-16.3581
-14.9154
-2.84135
-0.213024
-5.12293
-8.54733
-8.78018
-8.3897
-9.50389
-11.4276
-13.3576
-14.7243
-16.4004
-17.9932
-20.9869
-23.1643
-24.7668
-27.1914
-30.0128
-33.7078
-36.7836
-39.6943
-42.7948
-45.971
-49.483
-52.8713
-56.0778
-59.3407
-62.4484
-65.4509
-68.2269
-70.7415
-72.9665
-74.8802
-76.337
-77.3265
-77.7211
-77.5489
-76.6994
-75.0928
-72.7176
-69.4924
-65.35
-60.2231
-54.0446
-46.7807
-38.3819
-28.8295
-18.1483
-6.33255
6.60965
20.6643
35.771
51.8816
68.9153
86.7993
105.418
124.643
144.327
164.305
184.376
204.338
223.953
242.943
261.092
278.126
293.778
307.762
319.739
329.505
336.883
341.605
343.266
342.199
338.78
330.756
318.838
310.594
305.39
287.607
246.202
188.65
134.095
94.8114
71.573
59.8136
54.8192
52.9271
51.3623
48.2213
42.432
33.8019
23.1694
12.3671
3.46924
-1.90617
-5.36501
-6.08298
-4.70325
-2.13842
-0.189804
0.879392
0.28865
-2.576
-8.49015
-17.5404
-31.6724
-57.9957
-79.2574
-93.538
-100.024
-97.8728
-92.2339
-92.2051
-91.0703
-88.8573
-85.6174
-81.443
-76.4662
-70.8563
-64.7602
-58.3139
-51.7713
-45.2046
-38.1764
-31.799
-26.2837
-19.6175
-13.945
-8.08948
-2.16753
3.9229
10.1755
17.4583
27.2968
39.7424
46.7752
2148.73
3068.93
3802.47
4270.49
4406.73
4164.68
3530.48
2544.57
1296.84
-66.8106
-1356.75
-2378.64
-2978.74
-3074.98
-2672.75
-1862.11
-799.283
316.743
1265.42
1835.74
1888.62
1429.98
632.509
-224.106
-863.828
-1105.48
-913.41
-415.367
139.833
497.814
526.747
287.505
-16.6413
-190.848
-179.511
-73.7971
4.09477
17.0448
8.73476
13.9095
17.4754
-1.24103
-28.1389
-34.2746
-16.2904
-2.82606
-9.39166
-20.0713
-23.5385
-22.5785
-23.3469
-27.218
-31.5074
-35.2615
-38.4315
-42.3581
-46.5516
-51.5689
-56.8748
-61.7371
-66.8899
-72.1886
-78.2599
-84.5375
-90.6547
-96.7684
-102.753
-108.74
-114.574
-120.073
-125.312
-130.148
-134.543
-138.341
-141.379
-143.574
-144.922
-145.224
-144.409
-142.33
-138.933
-134.092
-127.706
-119.696
-109.956
-98.3892
-84.9016
-69.4347
-51.96
-32.441
-10.9155
12.5225
37.8433
64.9816
93.8222
124.188
155.905
188.774
222.576
257.027
291.821
326.638
361.103
394.821
427.385
458.308
487.16
513.56
537.039
557.176
573.516
585.68
593.412
596.531
594.804
587.76
576.187
560.674
538.447
511.432
489.464
470.265
434.193
370.946
286.372
206.201
148.392
113.499
94.9939
86.0918
81.1379
75.6524
66.7928
53.755
37.8177
21.7385
8.47002
0.360271
-3.38525
-3.48355
0.50657
5.67011
13.1587
17.944
21.0731
21.5775
19.0253
13.086
3.18105
-8.845
-49.961
-90.0664
-123.337
-147.387
-158.552
-158.152
-165.783
-170.795
-173.321
-173.198
-170.426
-165.104
-157.404
-147.57
-135.942
-122.789
-108.47
-92.6564
-75.4548
-62.0354
-43.7103
-26.9648
-10.3414
6.17248
22.462
38.449
54.8044
72.8401
91.6474
96.7136
724.095
778.546
869.226
975.591
908.923
802.527
677.691
556.648
448.043
352.647
267.33
190.387
142.471
84.3185
8.71869
-28.7639
-71.0118
-106.351
-138.445
-154.686
-171.239
-171.484
-156.58
-148.821
-97.6688
414.971
427.426
475.343
517.206
480.753
420.609
355.05
292.307
236.54
187.777
143.036
102.905
82.4636
49.6466
7.55494
-10.108
-31.831
-49.8778
-66.9283
-75.1035
-84.4978
-84.7624
-78.3939
-73.94
-48.3738
286.002
284.269
313.483
332.338
308.068
268.566
227.506
188.798
154.647
124.787
96.3016
71.8244
59.0696
38.3967
10.8381
0.00406388
-14.0009
-25.2496
-36.608
-41.8723
-48.6038
-49.1726
-46.4417
-43.7476
-28.7463
210.72
205.373
222.463
232.113
215.813
189.309
161.707
136.214
113.874
94.1074
74.5964
58.8034
47.5249
35.0643
16.0977
8.03881
-2.33434
-9.71509
-18.2562
-21.9175
-27.4884
-28.339
-27.7667
-26.3342
-17.5351
159.855
155.828
166.167
172.508
162.377
144.275
124.902
107.281
91.9425
78.0731
64.1771
53.2423
43.6391
32.9622
22.0103
15.0162
6.05846
1.46918
-5.55188
-8.21245
-12.8596
-14.041
-14.8482
-14.3929
-9.78056
120.842
120.203
127.984
133.725
128.626
116.609
102.811
90.2303
79.318
69.2225
59.1064
50.897
42.6816
34.1467
25.7603
20.3789
13.0443
9.76595
4.16949
2.05883
-1.72639
-3.08724
-4.77117
-5.04838
-3.47783
88.0871
91.4938
99.0715
105.392
104.553
97.5263
88.0288
79.0886
71.2823
63.9121
56.5153
50.0329
43.0699
35.9193
29.4342
23.8088
19.0955
16.1294
11.7624
10.0927
7.10341
5.77973
3.65844
2.88253
2.23415
59.4232
66.874
74.7867
82.7939
85.7455
82.8785
76.8912
70.8494
65.4216
60.1879
54.8814
49.7525
43.9733
37.9436
32.3143
27.5967
23.3614
20.8489
17.8874
16.4702
14.1586
13.0507
10.8607
9.81407
7.65529
35.7522
44.9397
53.2887
62.0583
67.8845
68.995
66.5078
63.276
60.1134
56.8959
53.384
49.5427
44.8261
39.8138
34.8349
30.7514
26.9484
24.956
22.2924
21.4973
19.7654
18.9616
16.9133
15.8096
12.779
19.1341
26.3385
34.3388
44.2561
51.0872
55.5419
56.2491
55.6759
54.6868
53.3717
51.6022
49.1117
45.5948
41.514
37.083
33.4491
29.9775
28.1638
25.9294
25.4804
24.0232
23.7043
21.7806
20.8333
17.4572
8.76077
11.7871
19.467
26.758
36.4818
42.3892
45.7463
47.6047
48.7491
49.2682
49.1755
48.1298
45.9242
42.8245
39.0851
35.76
32.6057
30.7666
28.8068
28.6075
27.304
27.5401
25.3073
24.9172
21.497
2.06744
3.9589
8.8985
14.7401
21.9216
30.9012
36.2227
39.5014
42.4451
44.5553
46.0389
46.4787
45.6673
43.6542
40.7163
37.7407
34.8373
33.0299
31.0655
31.0187
29.6539
30.3702
27.8891
28.2754
24.5534
-1.64143
0.935568
2.79553
6.60679
13.0937
19.3018
25.5255
32.0834
36.597
39.8072
42.4309
44.2194
44.7887
43.9505
41.9099
39.3934
36.7424
34.9098
32.8258
32.7759
31.1843
32.2595
29.5739
30.3297
27.0828
-1.72085
-1.02404
0.3767
4.08696
6.72013
11.4308
18.7146
24.3003
29.683
35.1144
39.309
42.1069
43.5303
43.7292
42.6344
40.6858
38.2732
36.471
34.142
33.9904
32.0521
33.2598
30.5
30.8665
29.0015
-1.10927
-1.27656
-0.500713
1.28357
5.43675
7.82815
12.1654
19.0503
24.9289
30.242
35.1793
39.4721
42.245
43.3883
43.1248
41.7666
39.5163
37.6485
35.0184
34.6477
32.3032
33.3943
30.6865
30.7128
29.5683
-2.24107
-2.02662
-1.575
-0.234395
2.30707
7.082
9.46659
13.7107
20.7397
26.8944
32.1397
36.7762
40.6163
42.7112
43.1013
42.2857
40.2225
38.3375
35.4022
34.7989
32.0301
32.6705
30.0737
29.7816
28.9666
-6.75956
-6.44808
-5.22516
-3.29926
-0.898729
2.72253
8.56177
11.1257
15.5885
23.2356
29.5002
34.3211
38.5772
41.6081
42.5993
42.185
40.322
38.3994
35.2225
34.1534
31.0018
31.0904
28.634
28.1104
27.4412
-14.2182
-14.2474
-12.1191
-9.34012
-6.08152
-2.66262
2.57251
9.59719
12.3605
17.1876
25.8132
31.7827
36.0673
39.6214
41.4591
41.3616
39.6458
37.6737
34.2956
32.7655
29.2939
28.7736
26.4631
25.8102
25.2959
-20.6426
-20.7554
-19.232
-16.7146
-13.1893
-9.32724
-4.94351
2.2578
9.92312
12.7615
18.0972
27.8258
32.7683
36.5038
38.9816
39.5134
37.9455
35.9751
32.4507
30.5384
26.9582
25.6552
23.5486
22.9881
22.8535
-23.6496
-24.1907
-23.8309
-22.5569
-20.0477
-16.4366
-12.4877
-6.98033
2.00494
9.18022
12.0704
18.1452
28.2849
31.9835
34.8324
36.1322
34.986
33.1506
29.6041
27.4498
24.0549
22.0921
20.1664
19.7784
20.2172
-23.0401
-24.4773
-25.3472
-25.5005
-24.641
-22.3712
-19.2084
-15.1796
-8.47192
1.44209
7.07782
10.2896
18.0911
25.8052
28.8651
30.9698
30.5595
29.1486
25.8323
23.6083
20.7083
18.4152
16.6664
16.4568
17.5091
-14.7065
-18.2907
-21.3648
-23.8451
-25.5295
-25.6367
-24.2859
-21.6996
-17.2751
-9.91806
-0.0911386
3.80151
7.81714
16.1622
21.066
24.1816
24.7455
24.0548
21.3597
19.3244
17.0805
14.8192
13.3242
13.2797
14.8642
1.38765
-1.13567
-3.55365
-7.60225
-15.5025
-20.8352
-24.1544
-25.3179
-23.7938
-19.7512
-12.8444
-3.26621
0.167756
3.82553
11.1424
15.7423
17.5988
17.9874
16.3592
14.8322
13.4781
11.6054
10.5209
10.6398
12.5961
31.5164
23.6256
15.7559
6.24264
-0.124146
-2.74297
-7.45484
-17.6357
-22.6928
-23.2796
-20.2146
-13.8389
-5.67896
-2.67576
0.717443
7.26789
10.5197
12.5524
12.5224
11.4616
10.7166
9.32968
8.68355
8.9037
10.9817
86.0411
71.881
57.1919
40.884
24.2938
11.1728
-0.199974
-3.90521
-10.5813
-20.4363
-21.3808
-18.5526
-12.3461
-5.93742
-3.75049
-0.237954
6.14316
8.79566
9.19533
8.75274
8.73933
7.92693
7.75824
8.05525
10.142
105.856
109.475
105.639
92.8847
68.8168
41.3289
21.4875
4.29191
-2.52672
-10.7607
-19.4256
-19.2495
-15.7589
-9.8819
-5.33299
-3.1851
1.61005
5.34454
6.96683
7.15786
7.58647
7.17076
7.35196
7.70547
9.75619
113.078
119.441
122.51
118.049
105.265
82.763
54.7619
25.8496
7.31069
-3.43088
-11.9671
-18.354
-17.2259
-11.811
-6.58517
-5.05155
-1.68241
2.93225
5.49052
6.14464
6.89079
6.78681
7.22417
7.62597
9.63269
113.383
121.921
128.691
130.761
126.386
110.871
83.3321
52.8043
25.1161
5.27986
-4.14754
-15.4357
-16.9622
-13.8414
-8.3828
-5.37916
-3.42477
0.0996255
4.74861
5.50487
6.48053
6.62712
7.26471
7.70221
9.65947
111.505
121.417
129.945
136.073
138.94
131.107
109.189
79.0055
46.6536
19.6874
2.66962
-5.89695
-15.4989
-14.8027
-9.8893
-5.71392
-4.18882
-1.43103
3.5227
4.91082
6.28398
6.64322
7.44113
7.91582
9.81199
109.745
120.448
130.22
138.92
145.794
144.753
130.392
103.506
69.6565
37.4778
13.1065
0.0607844
-7.02795
-15.1255
-10.7565
-5.93448
-4.43454
-2.1542
2.54691
4.24223
6.39723
6.81589
7.75254
8.26334
10.0882
108.194
119.189
129.723
139.883
149.206
153.238
145.993
124.54
92.0003
56.7929
27.0472
6.84082
-1.51295
-8.95656
-10.8336
-5.90219
-3.90352
-2.40505
1.98511
3.86769
6.56765
7.12802
8.20498
8.7343
10.4874
107.258
118.203
129.076
139.924
150.564
158
156.549
141.093
111.912
75.9911
42.4481
17.3012
2.6618
-2.36222
-9.04354
-5.05191
-3.20895
-1.99441
1.94116
3.86677
6.87368
7.56875
8.79672
9.33746
11.0076
107.037
117.72
128.609
139.656
150.868
160.328
163.094
153.135
128.339
93.6189
58.0163
29.1299
10.1471
0.776311
-4.11579
-3.32407
-1.75599
-0.955607
2.44847
4.29382
7.36584
8.15986
9.53016
10.081
11.6518
107.317
117.623
128.308
139.268
150.607
161.108
166.66
161.144
140.864
108.626
72.5942
41.1885
18.9794
5.85486
0.606345
-1.0523
-0.15199
0.825817
3.48409
5.13709
8.09032
8.93312
10.4177
10.9767
12.4226
107.688
117.582
127.939
138.66
149.88
160.781
167.974
165.708
149.484
120.369
85.239
52.634
28.1327
12.6295
4.51173
2.32298
2.0276
2.92185
4.87379
6.3188
9.04498
9.90585
11.4864
12.04
13.3176
107.661
117.167
127.159
137.573
148.54
159.438
167.422
167.299
154.384
128.531
95.2562
62.7005
36.9632
19.5863
9.64763
5.609
4.58671
5.29375
7.0638
7.87965
10.1821
11.0942
12.7674
13.2834
14.3249
106.747
115.94
125.585
135.665
146.308
156.945
165.103
166.194
155.778
133.014
102.199
70.7809
44.8177
26.3462
15.2734
9.70654
7.45113
7.66141
9.15489
9.81614
11.6421
12.5453
14.263
14.7025
15.4187
104.526
113.523
122.846
132.537
142.818
153.024
160.915
162.493
153.844
133.844
105.84
76.4365
51.2068
32.4901
20.8002
14.2411
10.7938
10.2718
11.0291
11.941
13.3623
14.234
15.9513
16.2656
16.5491
102.047
109.981
118.732
127.739
137.364
147.203
154.61
156.186
148.726
131.14
106.144
79.42
55.7886
37.6407
25.8392
18.8043
14.5924
12.8315
13.2137
14.0459
15.1028
15.9821
17.7536
17.8933
17.633
96.7138
105.588
114.595
123.849
131.873
138.643
145.692
147.174
140.569
125.135
103.266
79.6953
58.3879
41.5452
30.1297
23.0543
18.5873
16.029
15.515
16.1151
17.2686
17.861
19.486
19.4261
18.5489
88.904
97.8164
106.795
116.031
124.243
132.132
133.911
135.349
129.561
116.189
97.5427
77.4499
59.0191
44.0998
33.555
26.818
22.5289
19.6888
18.2025
18.2791
19.1701
19.868
21.0116
20.633
19.1275
79.5144
88.4229
97.098
104.836
112.841
119.431
124.283
120.516
116.009
104.799
89.4729
73.0694
57.8869
45.3734
36.1555
30.0902
26.2302
23.5148
21.2259
20.3487
20.9422
21.4856
21.8448
21.1731
19.1799
67.1668
76.5045
85.0574
92.6307
99.6712
104.747
107.764
108.434
101.375
92.1358
80.0811
67.3275
55.4642
45.5832
37.9772
32.773
29.3215
26.8658
24.1264
22.292
21.9987
22.0933
21.4007
20.6691
18.5148
53.3417
62.6633
71.293
78.8622
85.1696
89.5374
91.8843
91.5298
85.7857
79.4498
70.5728
61.2032
52.4504
45.0859
39.0745
34.6551
31.4212
29.2004
26.1987
23.5901
21.6621
21.1414
19.854
19.1523
17.0452
41.5928
48.9084
56.7999
63.9669
69.9085
74.0366
76.1693
75.954
74.9078
67.3228
61.4471
55.11
49.1655
43.9632
39.3431
35.4717
32.4091
30.1855
26.877
23.5589
20.2109
18.8592
17.1919
16.6367
14.7347
31.5323
38.3306
43.5296
49.6169
54.77
58.7669
61.116
61.5071
60.7361
58.6558
53.0175
49.0212
45.5397
42.0404
38.4888
34.9849
32.0887
29.5124
25.6859
21.3235
17.3509
15.228
13.5126
13.0285
11.5666
23.5319
29.2292
34.0216
38.068
41.5406
44.9345
47.3746
48.5114
48.2802
48.1225
46.5676
44.1549
41.3741
39.0011
36.2261
32.9602
30.1755
26.7846
22.252
17.0677
13.4263
9.72318
8.68168
8.46396
7.71673
17.4769
21.9058
25.7557
28.355
31.4075
34.0673
35.9473
37.445
38.3232
38.4352
38.6317
37.8743
37.0556
35.1403
32.3165
29.3637
25.3063
21.2296
16.0418
11.6009
6.04123
3.5001
2.93207
3.12875
3.46841
13.5642
16.7059
18.9329
20.2461
22.4549
24.6262
27.2636
28.7595
30.0901
31.0933
31.6528
31.3774
30.8541
29.5185
26.4355
22.7896
16.9079
13.0418
6.90382
2.21025
-2.1651
-3.99952
-3.46917
-2.6078
-0.724623
12.0439
13.9779
14.6325
14.302
14.2717
16.464
19.247
20.864
22.371
23.7934
24.4736
24.0956
23.3967
21.8006
16.5034
12.2311
4.76679
-0.10074
-5.65237
-9.53568
-11.9514
-12.4371
-10.0176
-8.19468
-4.39421
12.6884
13.9748
13.4988
11.0449
7.83455
8.91627
11.8085
13.2669
14.8319
16.0686
16.2052
14.7012
12.6141
9.04553
1.59448
-5.06409
-13.3073
-18.1761
-21.8769
-23.5343
-22.7415
-21.1905
-16.1324
-13.109
-7.24354
15.1026
16.7328
16.0033
11.4255
3.91702
1.48084
4.66276
5.85369
6.59207
6.61197
5.09477
1.08273
-3.47817
-11.501
-21.8621
-30.8988
-38.6384
-41.8843
-41.5438
-39.2441
-33.9053
-29.7687
-21.4952
-17.1093
-9.21483
18.9042
22.068
22.2474
16.3366
4.04101
-6.54238
-3.13283
-2.74911
-4.06499
-6.96944
-11.6214
-19.6302
-31.4702
-44.6273
-58.0799
-68.1595
-72.8804
-71.662
-64.5185
-56.4532
-45.4552
-38.3402
-26.2888
-20.5389
-10.359
24.4829
29.5754
32.3766
25.8714
10.3549
-16.039
-13.7391
-15.2046
-20.9073
-28.1977
-40.8915
-58.0215
-78.4976
-97.607
-112.621
-120.535
-118.455
-109.213
-92.3328
-76.5712
-58.7756
-48.1695
-31.3995
-23.9478
-11.134
34.1333
40.5604
45.6938
40.1798
23.9048
-27.5898
-31.7476
-37.7488
-50.6175
-70.3521
-97.0426
-127.414
-158.106
-182.073
-195.262
-196.57
-183.189
-161.444
-130.914
-104.376
-77.6058
-62.196
-38.6216
-28.6282
-11.9155
54.725
60.6397
64.6963
58.6264
42.9789
-40.6016
-63.744
-83.3184
-115.078
-156.746
-207.443
-258.121
-299.613
-326.782
-334.439
-323.32
-291.647
-249.01
-196.369
-151.769
-110.467
-86.6773
-51.4982
-36.8335
-13.0189
111.077
114.399
111.331
98.8083
71.8429
-48.8218
-131.02
-198.908
-280.746
-377.537
-485.987
-585.296
-644.192
-677
-671.884
-630.751
-555.558
-462.255
-356.655
-267.29
-191.115
-145.661
-83.1888
-56.1233
-14.4079
)
;

boundaryField
{
    inlet
    {
        type            calculated;
        value           uniform 0;
    }
    outlet
    {
        type            calculated;
        value           nonuniform List<scalar> 
57
(
-97.6688
-48.3738
-28.7463
-17.5351
-9.78056
-3.47783
2.23415
7.65529
12.779
17.4572
21.497
24.5534
27.0828
29.0015
29.5683
28.9666
27.4412
25.2959
22.8535
20.2172
17.5091
14.8642
12.5961
10.9817
10.142
9.75619
9.63269
9.65947
9.81199
10.0882
10.4874
11.0076
11.6518
12.4226
13.3176
14.3249
15.4187
16.5491
17.633
18.5489
19.1275
19.1799
18.5148
17.0452
14.7347
11.5666
7.71673
3.46841
-0.724623
-4.39421
-7.24354
-9.21483
-10.359
-11.134
-11.9155
-13.0189
-14.4079
)
;
    }
    upperWall
    {
        type            calculated;
        value           nonuniform List<scalar> 
245
(
-559.57
781.814
1400.8
742.447
-2375.27
-2308.63
-357.752
1449.41
2347.54
2265.1
1493.86
-2562
-4949.1
-2818.6
-71.9639
2355.18
3932.65
4402.08
3615.55
1076.24
-6168.73
-6373.66
-4952.95
-2563.25
105.388
2589.98
4623.93
6014.7
6221.93
4339.24
551.406
-2423.43
-4419.14
-5371.78
-5432.43
-4806.15
-3670.83
-2213.19
-629.136
936.03
2148.73
3068.93
3802.47
4270.49
4406.73
4164.68
3530.48
2544.57
1296.84
-66.8106
-1356.75
-2378.64
-2978.74
-3074.98
-2672.75
-1862.11
-799.283
316.743
1265.42
1835.74
1888.62
1429.98
632.509
-224.106
-863.828
-1105.48
-913.41
-415.367
139.833
497.814
526.747
287.505
-16.6413
-190.848
-179.511
-73.7971
4.09477
17.0448
8.73476
13.9095
17.4754
-1.24103
-28.1389
-34.2746
-16.2904
-2.82606
-9.39166
-20.0713
-23.5385
-22.5785
-23.3469
-27.218
-31.5074
-35.2615
-38.4315
-42.3581
-46.5516
-51.5689
-56.8748
-61.7371
-66.8899
-72.1886
-78.2599
-84.5375
-90.6547
-96.7684
-102.753
-108.74
-114.574
-120.073
-125.312
-130.148
-134.543
-138.341
-141.379
-143.574
-144.922
-145.224
-144.409
-142.33
-138.933
-134.092
-127.706
-119.696
-109.956
-98.3892
-84.9016
-69.4347
-51.96
-32.441
-10.9155
12.5225
37.8433
64.9816
93.8222
124.188
155.905
188.774
222.576
257.027
291.821
326.638
361.103
394.821
427.385
458.308
487.16
513.56
537.039
557.176
573.516
585.68
593.412
596.531
594.804
587.76
576.187
560.674
538.447
511.432
489.464
470.265
434.193
370.946
286.372
206.201
148.392
113.499
94.9939
86.0918
81.1379
75.6524
66.7928
53.755
37.8177
21.7385
8.47002
0.360271
-3.38525
-3.48355
0.50657
5.67011
13.1587
17.944
21.0731
21.5775
19.0253
13.086
3.18105
-8.845
-49.961
-90.0664
-123.337
-147.387
-158.552
-158.152
-165.783
-170.795
-173.321
-173.198
-170.426
-165.104
-157.404
-147.57
-135.942
-122.789
-108.47
-92.6564
-75.4548
-62.0354
-43.7103
-26.9648
-10.3414
6.17248
22.462
38.449
54.8044
72.8401
91.6474
96.7136
111.077
114.399
111.331
98.8083
71.8429
-48.8218
-131.02
-198.908
-280.746
-377.537
-485.987
-585.296
-644.192
-677
-671.884
-630.751
-555.558
-462.255
-356.655
-267.29
-191.115
-145.661
-83.1888
-56.1233
-14.4079
)
;
    }
    lowerWall
    {
        type            calculated;
        value           nonuniform List<scalar> 
272
(
-27.7214
-1844.33
484.122
2099.03
2049.83
1277.65
-3647.11
-4987.36
-992.168
2613.99
4595.47
4571.06
2899.76
-5263.34
-8224.22
-5113.6
-372.732
3909.21
6659.53
7186.35
5195.62
-2109.15
-5927.61
-6650.53
-5573.19
-3334.68
-492.376
2232.88
4160.54
4917.14
4497.53
3269.77
1661.68
68.6649
-1206.17
-2195.81
-2589.61
-2980.38
-2505.58
-2284.21
-3.26473
-3.25159
-3.22198
-3.16917
-3.08515
-2.9585
-2.77193
-2.69316
-2.95565
-3.99916
-6.15071
-9.38678
-13.425
-17.9572
-22.5145
-25.2459
-26.7573
-26.7213
-23.6806
-20.7996
-22.2368
-22.8073
-23.0251
-23.7807
-17.2723
49.309
-101.306
-3.26473
-3.2786
-3.30903
-3.3578
-3.42687
-3.51713
-3.62708
-3.75185
-3.90622
-4.1239
-4.36982
-4.64705
-4.95899
-5.30608
-5.68872
-6.10742
-6.56127
-7.04968
-7.57182
-8.12643
-8.71152
-9.32322
-9.95698
-10.6074
-11.2682
-11.9327
-12.5893
-13.2377
-13.8587
-14.4447
-15.0573
-15.5247
-15.8817
-16.3139
-16.5507
-16.7229
-16.7433
-16.6085
-16.3004
-15.7972
-15.077
-14.1342
-12.9919
-11.6887
-10.3106
-8.70251
-7.56907
-6.48081
-6.02456
-5.45007
-6.1197
-7.35964
-5.12
0.0450171
0.684036
0.485058
-2.97695
-7.27893
-12.6469
-21.019
-33.4538
-49.8413
-69.3294
-90.749
-112.871
-135.013
-157.285
-179.297
-201.594
-223.171
-243.747
-263.53
-282.353
-300.289
-317.278
-333.32
-348.392
-362.457
-375.472
-387.382
-398.123
-407.621
-415.798
-422.579
-427.883
-431.631
-433.758
-434.19
-432.849
-429.745
-424.872
-417.749
-408.685
-401.04
-383.809
-368.59
-359.307
-338.432
-319.607
-299.06
-275.465
-254.182
-230.119
-206.19
-181.623
-157.02
-132.505
-108.389
-84.9827
-62.4436
-41.0681
-21.0918
-2.69924
13.9695
29.2711
42.8034
54.5259
65.5916
75.5926
86.1618
97.8171
110.723
127.477
148.103
169.153
186.162
202.297
207.73
205.729
201.734
195.886
160.363
41.7498
2.61291
-21.1126
-46.0005
-78.3797
-115.932
-152.695
-198.752
-252.185
-297.598
-355.127
-416.678
-459.881
-502.722
-545.067
-582.078
-612.379
-636.114
-653.177
-663.208
-665.973
-659.836
-645.244
-625.849
-599.328
-561.022
-519.278
-477.835
-417.829
-348.362
-302.891
-237.246
-114.879
-66.9253
-4.54087
88.4851
174.896
256.803
336.9
413.416
486.009
552.702
614.717
668.642
710.026
739.299
777.88
763.756
724.095
778.546
869.226
975.591
908.923
802.527
677.691
556.648
448.043
352.647
267.33
190.387
142.471
84.3185
8.71869
-28.7639
-71.0118
-106.351
-138.445
-154.686
-171.239
-171.484
-156.58
-148.821
-97.6688
)
;
    }
    frontAndBack
    {
        type            empty;
    }
}


// ************************************************************************* //
