/*--------------------------------*- C++ -*----------------------------------*\
| =========                 |                                                 |
| \\      /  F ield         | OpenFOAM: The Open Source CFD Toolbox           |
|  \\    /   O peration     | Version:  2112                                  |
|   \\  /    A nd           | Website:  www.openfoam.com                      |
|    \\/     M anipulation  |                                                 |
\*---------------------------------------------------------------------------*/
FoamFile
{
    version     2.0;
    format      ascii;
    arch        "LSB;label=32;scalar=64";
    class       volScalarField;
    location    "0.02";
    object      ddt0(k);
}
// * * * * * * * * * * * * * * * * * * * * * * * * * * * * * * * * * * * * * //

dimensions      [0 2 -3 0 0 0 0];

internalField   nonuniform List<scalar> 
12225
(
0.00632135
-0.00715349
0.00343319
-0.0355151
-0.0379109
-0.133087
-0.151661
-0.31196
-0.391265
-0.554129
-0.754199
-1.02984
-1.23457
-1.61593
-2.13493
-2.31984
-2.4075
-4.15003
-0.000586263
0.000715582
0.011702
0.0161538
-0.0292635
0.15837
0.784991
-0.73511
1.82614
-1.58755
3.13989
-2.96991
0.317872
3.11921
-5.39135
4.91949
2.91938
1.42727
-0.000313198
-0.000775375
-0.000969877
-0.000396512
-0.0168541
0.0542384
-0.0633782
0.0118771
0.018869
-0.00575502
-0.101814
0.128531
0.104579
-0.243781
-0.127958
0.408227
0.749831
0.0259763
-0.000244327
-0.00106172
-0.00223367
-0.00372548
-0.0121478
0.00813728
-0.03829
-0.0154498
-0.0194635
-0.0472254
-0.103695
0.0170396
-0.109246
-0.177964
-0.201284
-0.022951
0.116092
-0.432192
-0.000182191
-0.00126945
-0.00313609
-0.00602497
-0.0120449
-0.00781687
-0.0287492
-0.0257789
-0.0328672
-0.0539344
-0.07365
-0.0549197
-0.10986
-0.133205
-0.170015
-0.183537
-0.0812549
-0.283466
-9.7235e-05
-0.00141549
-0.0039141
-0.00799363
-0.0136337
-0.0160635
-0.0291943
-0.0339802
-0.0443914
-0.0609754
-0.076463
-0.0870455
-0.118904
-0.140743
-0.172439
-0.219614
-0.192273
-0.254821
-3.11673e-06
-0.00152125
-0.00455765
-0.00958942
-0.0156585
-0.0214282
-0.0324908
-0.0413689
-0.0540776
-0.0704066
-0.0881079
-0.107987
-0.135583
-0.16153
-0.193815
-0.236357
-0.24614
-0.284248
6.40909e-05
-0.00151516
-0.00499921
-0.010797
-0.0175531
-0.0252775
-0.0362736
-0.0477201
-0.0623147
-0.0800578
-0.100615
-0.1248
-0.153408
-0.183146
-0.216888
-0.253717
-0.277655
-0.315222
0.000128101
-0.00149069
-0.00527719
-0.0115762
-0.0190209
-0.028024
-0.0395937
-0.052805
-0.0689913
-0.0884229
-0.111368
-0.138266
-0.168828
-0.20128
-0.235786
-0.270087
-0.300047
-0.335239
0.000280619
-0.00119037
-0.00529209
-0.0118065
-0.0198679
-0.0297418
-0.0419684
-0.0563881
-0.0737839
-0.0945704
-0.119162
-0.147766
-0.17989
-0.214019
-0.248931
-0.282462
-0.313691
-0.346002
0.000615426
-0.000817851
-0.00502153
-0.0115628
-0.0199779
-0.0303802
-0.0430862
-0.0582189
-0.0763173
-0.0978345
-0.123193
-0.152533
-0.185238
-0.220346
-0.255418
-0.28876
-0.319617
-0.349115
0.000811959
-0.000326383
-0.00437651
-0.0108205
-0.0193103
-0.0298802
-0.0427269
-0.0580353
-0.0762126
-0.0976626
-0.122773
-0.151759
-0.184176
-0.218841
-0.254577
-0.288538
-0.319158
-0.346783
0.000918454
0.000182863
-0.00349853
-0.00965378
-0.0179679
-0.0284016
-0.0410579
-0.0560923
-0.0737996
-0.0945031
-0.118506
-0.146028
-0.177198
-0.210874
-0.247149
-0.280298
-0.310416
-0.339195
0.000949059
0.000691621
-0.0023508
-0.0078904
-0.0156439
-0.0254992
-0.0374607
-0.0515957
-0.0680452
-0.0870233
-0.108724
-0.133354
-0.161311
-0.192863
-0.22725
-0.261473
-0.294973
-0.317781
0.000896869
0.00108596
-0.00109441
-0.00560865
-0.0122592
-0.0209002
-0.0314365
-0.043805
-0.0580025
-0.0740526
-0.0920149
-0.112133
-0.134849
-0.161502
-0.190387
-0.222604
-0.260071
-0.286893
0.000757719
0.00124534
8.64968e-06
-0.0031093
-0.00804134
-0.0146654
-0.0228303
-0.0324019
-0.0432393
-0.0552015
-0.0682819
-0.082662
-0.0988143
-0.117481
-0.139817
-0.165651
-0.194427
-0.229999
0.000531727
0.001086
0.000684296
-0.000862318
-0.00358782
-0.00743581
-0.0122952
-0.0180363
-0.0245175
-0.0316346
-0.0393673
-0.0478867
-0.0575795
-0.0690262
-0.0829113
-0.100064
-0.121201
-0.14609
0.000228778
0.000614719
0.000823971
0.000788817
0.00045878
-0.000189015
-0.00114769
-0.00240024
-0.00395618
-0.0058586
-0.00822382
-0.0112768
-0.0153434
-0.0208013
-0.0280319
-0.0374599
-0.0495133
-0.0646339
-0.000118209
-1.90228e-05
0.000660467
0.00200337
0.00398206
0.00650719
0.00944525
0.0126432
0.0159366
0.0191222
0.0219594
0.0241811
0.0255088
0.0256723
0.024409
0.0214264
0.0163395
0.00864297
-0.000380437
-0.000372981
0.00084966
0.00335329
0.00700841
0.0116262
0.0169906
0.0228724
0.029035
0.0352325
0.0412155
0.0467375
0.0515636
0.0554743
0.0582532
0.0596477
0.0592994
0.0566708
-0.000515299
-0.000346294
0.00145048
0.00475153
0.00929829
0.0148505
0.0211783
0.0280555
0.0352616
0.0425796
0.0497956
0.0567024
0.0631038
0.0688149
0.0736522
0.0774065
0.079787
0.0803326
-0.000553452
-5.60669e-05
0.00224175
0.00595835
0.0107732
0.0164709
0.0228603
0.0297563
0.0369811
0.0443651
0.0517394
0.058938
0.0658015
0.0721777
0.0779169
0.0828581
0.0867927
0.0893782
-0.000502717
0.000334587
0.00289707
0.00660539
0.0111913
0.0164996
0.0223971
0.0287396
0.0353879
0.0422238
0.0491201
0.0559484
0.0625867
0.0689121
0.0748104
0.0801612
0.0848304
0.0886128
-0.000364933
0.000631648
0.00318359
0.00654931
0.0106055
0.0152209
0.0203323
0.0258288
0.0315874
0.0375578
0.0436468
0.0497527
0.0558063
0.0616938
0.0673557
0.0726888
0.0776106
0.0820453
-0.000116081
0.00065774
0.00305161
0.00585098
0.0092606
0.0130143
0.0172064
0.0217588
0.0264869
0.0314925
0.0366885
0.0419528
0.0473667
0.052705
0.058078
0.0633187
0.0683957
0.0733118
-3.56264e-05
0.000704391
0.00262233
0.00462893
0.00746181
0.0102091
0.01346
0.0171865
0.0208419
0.025039
0.0295598
0.0340683
0.0392502
0.0442123
0.0497492
0.0552056
0.0609466
0.0667521
-2.13464e-05
0.000578668
0.00216026
0.00289675
0.00555276
0.00697842
0.00935534
0.0128585
0.0152571
0.019386
0.0239138
0.0279411
0.0341203
0.0390292
0.0467524
0.0513225
0.0606016
0.0687815
-6.25101e-05
0.000343404
0.00162073
0.000229327
0.00341994
0.00220339
0.00274172
0.00722309
0.00439296
0.00966356
0.01091
0.0126106
0.0170784
0.00706909
0.043315
-0.0122431
0.0367074
0.0446252
-0.000539447
0.000469014
-0.00361952
-0.00609878
-0.0112243
-0.0195593
-0.0337951
-0.0297769
-0.0695866
-0.0581641
-0.101824
-0.105169
-0.150519
-0.435483
0.352312
-0.868126
-0.26
0.00430862
-0.00423143
0.00444415
-0.00349298
0.0131968
0.00913324
0.0427096
0.0440495
0.103552
0.108287
0.201087
0.2615
0.197767
0.391726
0.469708
0.546688
0.606553
0.723457
0.840415
-0.040073
-0.730177
-1.10441
-1.41607
-1.72497
-2.00757
-2.23957
-2.41954
-2.56114
-2.68342
-2.80224
-2.92822
-3.06483
-3.21513
-3.38169
-3.56584
-3.76707
-3.98325
-4.21205
-4.4534
-4.71143
-4.99391
-5.31081
-5.67596
-6.10151
-6.59497
-7.12969
-7.76272
-8.54222
-9.49982
-10.5321
-11.6326
-12.7465
-13.7109
-14.2458
-13.5094
-10.8403
-5.39385
3.40123
15.0048
27.9619
40.5654
51.6443
60.8354
68.3069
74.4041
79.4584
83.7359
87.5131
90.936
93.8176
96.4422
98.5716
100.165
101.179
101.33
100.757
100.172
100.053
99.688
98.7264
98.4379
98.0731
100.19
97.9175
99.3354
100.951
106.747
108.947
117.337
124.565
131.009
140.563
150.482
156.664
162.758
169.012
174.219
178.165
179.896
178.521
172.118
162.008
147.776
129.636
106.82
81.5993
70.4631
67.2566
62.7878
56.2578
49.709
43.7258
38.7152
34.1707
30.1849
26.6256
23.368
20.369
17.6362
15.3094
13.3427
11.6723
10.3665
9.52792
8.97788
8.59277
8.38632
8.23127
8.09209
8.16382
8.33621
8.40103
8.34747
8.2247
7.97599
7.57537
7.02786
6.37731
5.7108
4.96702
4.25524
3.60978
2.96344
2.41594
1.89674
1.35552
0.758013
0.150705
-0.498686
-1.26677
-1.67505
-2.43256
-3.16811
-3.80019
-4.39962
-4.9302
-5.41025
-5.86998
-6.27535
-6.60388
-6.87521
-7.12002
-7.33396
-7.49178
-7.56998
-7.56093
-7.4643
-7.31554
-7.16042
-7.01994
-6.8933
-6.8112
-6.77853
-6.75226
-6.71228
-6.70471
-6.69804
-6.7221
-6.64675
-6.62079
-6.36556
-6.3354
-6.33627
-6.31626
-6.29402
-6.25784
-6.23077
-6.19085
-6.1618
-6.11489
-6.08247
-6.01107
-5.99975
-5.84526
-5.95629
-5.60382
-5.9053
-5.40904
-5.77439
-0.0769336
-1.22594
-2.33648
-3.36171
-4.35794
-5.2023
-5.82294
-6.22823
-6.48313
-6.66109
-6.81366
-6.96514
-7.12335
-7.29331
-7.47491
-7.65943
-7.8242
-7.9306
-7.92984
-7.77524
-7.43234
-6.88836
-6.18378
-5.39732
-4.43784
-3.25088
-1.90675
-0.382176
1.34515
3.25053
5.1086
6.90712
8.72266
10.7763
13.4096
16.9815
21.6384
27.3698
33.8247
40.4353
46.5183
50.8483
56.3624
59.1479
60.2491
59.3742
56.9004
52.8003
47.1798
44.2032
37.2032
31.3646
23.8439
16.2806
8.53223
0.229632
-8.14885
-16.0096
-23.282
-30.51
-37.4856
-44.2852
-50.2182
-55.5186
-60.2071
-63.5292
-65.9398
-66.411
-63.901
-57.1747
-60.012
-36.1399
-19.9225
-15.6881
12.9422
31.0763
57.096
82.9865
111.32
141.382
173.185
207.654
231.01
250.245
264.08
270.257
265.016
238.893
219.41
201.352
181.917
163.438
145.802
129.01
114.967
102.308
90.7481
80.014
70.0372
60.9403
52.9749
46.2303
40.7893
36.6838
33.8268
32.0847
31.3057
31.3996
32.0093
32.7621
33.841
34.9006
35.4052
35.6092
35.7318
35.5589
34.9576
33.9512
32.5659
30.919
29.0187
27.0229
24.9245
22.6082
20.3531
18.1681
15.9567
13.7506
11.6779
9.76218
8.04364
6.52183
5.1769
4.05326
3.13619
2.35378
1.73199
1.28265
0.926146
0.639885
0.441455
0.331142
0.273131
0.226206
0.191945
0.192872
0.233311
0.319583
0.43287
0.543581
0.619388
0.64781
0.631244
0.569163
0.474655
0.350907
0.22013
0.11292
0.0488152
0.0366219
0.0554818
0.100789
0.20723
0.275506
0.392748
0.443676
0.514601
0.548944
0.59262
0.62054
0.657065
0.684018
0.714128
0.744217
0.786129
0.826151
0.901974
0.962649
0.970835
0.955536
-0.137052
-1.81599
-3.59068
-5.20357
-6.65524
-7.9003
-8.88865
-9.62262
-10.1503
-10.5363
-10.8432
-11.1208
-11.4081
-11.73
-12.1013
-12.5255
-12.9933
-13.4832
-13.9672
-14.4195
-14.8145
-15.104
-15.1874
-14.9485
-14.3712
-13.4199
-12.0592
-10.2814
-8.12406
-5.69111
-3.14633
-0.638128
1.81019
4.36298
7.35574
11.123
15.7508
21.0005
26.5498
31.9699
36.6052
40.4711
39.8131
38.775
36.0897
32.6807
27.4052
21.8182
16.1632
6.43377
-2.46795
-12.4564
-22.2768
-31.2745
-39.6649
-48.5012
-56.3013
-63.2951
-69.9647
-76.3205
-82.3691
-88.4405
-95.1985
-102.027
-108.394
-113.687
-118.097
-123.324
-126.524
-126.911
-124.689
-121.707
-121.406
-107.787
-90.0542
-86.4971
-58.8995
-37.5278
-15.6968
3.69932
28.2979
37.5919
72.1218
105.511
137.356
168.338
204.614
237.667
246.985
244.992
232.177
211.833
196.284
179.101
162.405
147.158
132.672
118.421
104.53
91.3068
79.1288
68.3011
59.0334
51.4927
45.7372
41.7707
39.5143
38.8012
39.4017
40.8363
42.8186
44.7637
45.9134
46.694
47.3718
47.5796
47.1769
46.4316
45.1646
43.439
41.3192
38.8794
36.1742
33.2409
30.1774
27.0866
24.0776
21.2188
18.4714
15.9128
13.5953
11.5294
9.70783
8.14278
6.82461
5.71453
4.80215
4.07964
3.5084
3.05939
2.71915
2.47192
2.28674
2.14713
2.04667
1.98883
1.96636
1.9744
2.00698
2.04968
2.06674
2.03594
1.93865
1.7742
1.55075
1.27501
0.970139
0.666707
0.396887
0.169222
-0.0110311
-0.148216
-0.247028
-0.323857
-0.394135
-0.464703
-0.543297
-0.617041
-0.700248
-0.768214
-0.848701
-0.908642
-0.97787
-1.00217
-1.04172
-1.03942
-1.05708
-0.951996
-0.909213
-0.654662
-0.172785
-2.13616
-4.31337
-6.15698
-7.73523
-9.06255
-10.1364
-10.9728
-11.608
-12.0882
-12.4634
-12.7862
-13.0979
-13.4319
-13.8134
-14.2587
-14.774
-15.3545
-15.9855
-16.6427
-17.2906
-17.874
-18.3071
-18.4796
-18.2809
-17.5944
-16.3028
-14.3113
-11.5891
-8.22933
-4.47808
-0.665816
2.96177
6.40216
9.93597
13.9564
18.8609
24.3266
30.3298
35.9104
39.6282
41.8608
42.1489
40.2723
36.4819
31.077
19.8089
7.78076
-5.50939
-17.633
-26.8314
-45.2803
-50.3338
-53.3782
-56.9757
-64.3101
-65.0436
-66.7956
-69.1604
-72.6943
-72.6308
-72.0132
-71.9782
-73.4531
-76.8146
-82.4831
-91.4886
-102.27
-115.45
-130.569
-146.433
-175.55
-196.316
-221.123
-234.455
-250.655
-245.047
-193.451
-170.185
-145.266
-128.579
-78.4374
-45.4853
-14.1628
15.2511
42.5297
61.0605
77.584
107.224
135.48
169.471
194.116
200.67
193.555
182.363
172.446
161.24
149.045
135.769
121.928
108.092
94.7861
82.4586
71.4639
62.0882
54.4821
48.7191
44.8096
42.7353
42.3724
43.6084
46.3729
49.5823
51.5865
52.8471
53.3914
53.0608
52.6265
51.4205
49.6978
47.4797
44.8097
41.7579
38.4416
34.9615
31.4485
28.0398
24.8227
21.8367
19.1041
16.6476
14.4597
12.5249
10.837
9.38165
8.13446
7.0778
6.19672
5.46946
4.87402
4.38803
3.99656
3.68493
3.43771
3.24339
3.09483
2.98251
2.89824
2.83251
2.77105
2.69238
2.58158
2.43034
2.22978
1.96854
1.65339
1.3001
0.93473
0.581211
0.257148
-0.030614
-0.278805
-0.494103
-0.681076
-0.855198
-1.01938
-1.18259
-1.33668
-1.4915
-1.63286
-1.77676
-1.90118
-2.0226
-2.10873
-2.19069
-2.23026
-2.27323
-2.26158
-2.21518
-2.01875
-0.134635
-2.09551
-4.42026
-6.3224
-7.89751
-9.19674
-10.2462
-11.0722
-11.7069
-12.1859
-12.5486
-12.8413
-13.0993
-13.3561
-13.6391
-13.97
-14.3631
-14.8235
-15.3449
-15.9066
-16.4693
-16.9686
-17.3078
-17.3602
-16.9758
-15.9809
-14.1584
-11.3073
-7.2963
-2.15006
3.91106
10.2259
16.4442
22.34
28.2211
34.755
41.7894
47.485
52.6089
55.6043
55.7938
53.672
48.7213
40.6704
29.6355
16.0446
2.35562
-21.4621
-26.9575
-33.8081
-47.807
-49.3036
-46.1515
-41.9111
-21.9038
-20.6727
-11.549
8.38611
19.8172
31.7558
40.9735
46.1037
52.1213
51.3253
55.4753
55.9486
56.735
51.7481
44.9137
35.466
31.9938
28.8096
13.5984
-12.4454
-39.7559
-57.39
-133.269
-204.919
-229.086
-232.581
-246.4
-257.523
-238.854
-201.975
-172.923
-130.338
-82.0556
-32.7176
1.92205
30.7973
50.5495
70.3621
98.0415
131.346
153.852
163.995
163.152
161.157
155.408
146.706
136.132
124.209
111.7
99.2674
87.4324
76.593
67.0674
59.09
52.8004
48.2859
45.5679
45.1504
47.2579
50.4407
52.8186
54.7736
55.8109
55.875
54.6742
52.8716
50.7315
47.9935
44.7958
41.3017
37.6222
33.909
30.3281
26.9792
23.9163
21.1538
18.687
16.4941
14.5516
12.8468
11.3631
10.0755
8.96266
8.00823
7.19851
6.51862
5.94728
5.46695
5.06796
4.73802
4.46386
4.23557
4.04589
3.88399
3.73593
3.58738
3.4248
3.23946
3.02399
2.76985
2.46964
2.12477
1.74546
1.35089
0.960164
0.588969
0.24488
-0.0674656
-0.350327
-0.606014
-0.843875
-1.06769
-1.28354
-1.48892
-1.68869
-1.87694
-2.05989
-2.22625
-2.38127
-2.51042
-2.62366
-2.71103
-2.77887
-2.83226
-2.83365
-2.77159
-0.00758549
-1.65519
-3.9709
-5.87825
-7.43454
-8.70018
-9.71121
-10.4977
-11.0942
-11.5332
-11.8471
-12.0721
-12.241
-12.3815
-12.5188
-12.6746
-12.8652
-13.0997
-13.3759
-13.6765
-13.9631
-14.165
-14.1845
-13.8747
-13.0684
-11.6003
-9.19892
-5.51582
-0.333919
6.43609
14.5743
22.5888
30.5071
37.4736
43.5008
49.034
53.947
58.467
61.704
62.0425
59.0872
53.6442
45.1462
33.3847
16.3925
-5.17528
-17.414
-24.7604
-39.1804
-39.4693
-36.853
-24.3931
-9.06107
12.6216
10.3808
40.6109
63.4447
92.0139
118.27
140.083
159.366
172.297
179.777
186.124
187.819
195.451
200.537
199.018
193.03
181.622
162.109
141.121
110.672
88.9646
69.2977
45.6854
27.2593
-12.8173
-48.9173
-77.8084
-85.1136
-95.9267
-135.484
-192.424
-233.98
-257.469
-232.182
-207.592
-171.018
-123.837
-79.4144
-27.4538
5.46734
30.28
51.3227
79.2228
112.219
133.709
145.538
148.011
148.316
144.516
137.702
128.751
118.364
107.264
96.0382
85.1933
75.1609
66.2847
58.7869
52.7465
48.5125
47.7182
48.5942
50.7827
53.1661
55.0099
55.3308
54.0626
51.6707
49.0477
45.9329
42.5113
38.8816
35.1823
31.6362
28.3486
25.3616
22.6826
20.2953
18.1691
16.2759
14.606
13.1471
11.8684
10.7434
9.75583
8.89993
8.16834
7.54236
6.99993
6.53159
6.13294
5.79269
5.49814
5.24026
5.01257
4.79544
4.57333
4.33652
4.08188
3.80496
3.49957
3.15949
2.78385
2.37907
1.95917
1.53976
1.13426
0.750317
0.392567
0.0615407
-0.243628
-0.528221
-0.795942
-1.05125
-1.29444
-1.52824
-1.75034
-1.96226
-2.15792
-2.33739
-2.49544
-2.63191
-2.75114
-2.84089
-2.93291
-2.96559
-2.98991
0.217901
-0.749812
-3.07835
-5.00724
-6.58039
-7.84815
-8.84621
-9.61015
-10.1757
-10.576
-10.84
-10.9964
-11.0752
-11.0978
-11.0862
-11.0593
-11.0324
-11.015
-11.0057
-10.9879
-10.9277
-10.7576
-10.4716
-9.87151
-8.7768
-7.04132
-4.49672
-0.673812
4.63494
11.55
19.8312
28.9304
37.7763
45.366
51.3722
56.266
60.2772
63.6181
65.3761
64.1096
59.2141
51.0951
39.3149
23.7439
1.51604
-12.3833
-19.1621
-32.6929
-34.209
-27.9846
-22.9571
-4.67686
24.6268
47.8751
98.8781
132.817
166.047
176.591
185.634
191.343
195.12
200.642
205.894
225.758
242.18
246.562
276.697
292.53
308.397
318.132
297.643
291.777
271.011
238.107
200.177
157.223
100.978
65.1879
45.3739
-20.5326
-32.6043
-37.7321
-42.2945
-43.3837
-53.1524
-87.0179
-166.475
-217.44
-234.568
-230.857
-209.192
-176.8
-128.758
-100.674
-38.7372
-6.58006
17.9575
40.9685
68.52
100.69
121.703
134.27
139.749
142.127
140.383
135.614
128.32
119.137
108.684
97.6014
86.5229
76.0228
66.5896
58.3384
52.2198
49.3282
48.4264
48.7272
50.4678
51.5943
50.3596
48.081
45.0237
42.0109
38.7665
35.3268
32.067
29.0698
26.3338
23.866
21.6508
19.6597
17.8642
16.2679
14.8783
13.6457
12.5369
11.5381
10.6523
9.88858
9.23052
8.64456
8.11984
7.66138
7.26463
6.91277
6.59245
6.29828
6.01678
5.72949
5.42567
5.10474
4.76722
4.4093
4.02525
3.61295
3.17667
2.72794
2.27821
1.83946
1.41976
1.02317
0.651305
0.304302
-0.0208785
-0.327308
-0.618326
-0.895077
-1.15919
-1.41021
-1.64789
-1.86797
-2.06869
-2.24915
-2.40567
-2.54801
-2.65742
-2.77563
-2.82979
-2.90604
0.361639
-0.123106
-1.95568
-3.91535
-5.53289
-6.83828
-7.85728
-8.62754
-9.18614
-9.56767
-9.80044
-9.90883
-9.91781
-9.84893
-9.71872
-9.54364
-9.33787
-9.11046
-8.86063
-8.57383
-8.2235
-7.90115
-7.62318
-7.04866
-6.05727
-4.49338
-2.06008
1.50488
6.5191
13.1629
21.3356
30.4866
39.5898
47.4657
53.4504
57.7974
61.1077
63.7206
64.8992
63.1766
57.6833
48.5756
35.3287
13.3407
-0.948571
-8.63021
-21.7928
-28.769
-26.1244
-17.5293
21.4055
31.4274
79.1795
109.719
146.746
162.859
164.898
162.861
156.971
149.142
141.588
135.371
133.165
133.81
135.727
150.507
147.409
176.753
199.066
228.614
289.324
315.763
336.867
324.007
313.794
283.853
234.031
176.951
102.581
64.9506
0.325223
-21.1105
-22.2968
-15.356
-9.09624
-11.7948
-37.4721
-50.0793
-122.095
-174.047
-211.768
-223.994
-217.705
-197.132
-166.13
-127.88
-91.8055
-45.4451
-11.9944
9.76011
35.2418
64.4556
95.571
117.288
130.195
139.729
144.574
145.199
141.857
134.867
124.772
112.448
99.0261
85.6445
73.1759
62.0392
52.9249
47.5187
44.2846
42.9735
43.6122
43.5667
41.7617
39.4655
36.8593
34.0004
31.3458
29.0063
26.7531
24.664
22.7433
20.9768
19.3409
17.8561
16.5996
15.4611
14.3951
13.4001
12.4902
11.7027
11.0407
10.434
9.86468
9.35333
8.91006
8.50941
8.13017
7.76886
7.42295
7.0733
6.70445
6.31624
5.91487
5.50109
5.06869
4.6126
4.13567
3.64775
3.16121
2.6866
2.23041
1.79595
1.3848
0.997527
0.632186
0.286549
-0.0418615
-0.353762
-0.649111
-0.927966
-1.19071
-1.4343
-1.65586
-1.8566
-2.0324
-2.19441
-2.32208
-2.46082
-2.53097
-2.64041
0.553829
0.852557
-1.13004
-2.86299
-4.4695
-5.83422
-6.89565
-7.69397
-8.26744
-8.65102
-8.87441
-8.96118
-8.93358
-8.81194
-8.61152
-8.34824
-8.03686
-7.69002
-7.31621
-6.91877
-6.57275
-6.32355
-5.92593
-5.23871
-4.21889
-2.75006
-0.612803
2.48486
6.82931
12.6192
19.8601
28.1787
36.7059
44.2975
50.1521
54.3244
57.466
60.0147
61.4531
60.4138
55.7165
46.8827
33.4689
13.3347
4.2787
-6.28587
-16.9932
-19.9906
-15.8145
13.326
36.8881
72.0573
101.406
127.604
142.972
147.872
143.004
135.324
125.856
116.451
109.093
104.422
100.758
99.2842
100.456
104.572
107.593
110.891
129.363
150.586
172.541
205.711
240.367
295.747
319.854
327.477
315.659
283.83
220.205
136.599
62.3354
8.30302
-20.2682
-28.8921
-24.8723
-15.0814
-9.1558
-13.8917
-27.4434
-43.0176
-97.5731
-147.316
-187.336
-208.185
-210.147
-197.49
-176.212
-147.065
-116.811
-85.5112
-46.1172
-14.5554
5.24408
35.0946
69.7097
100.008
122.517
139.588
152.051
158.937
159.537
153.649
142.098
126.68
109.384
91.8238
75.1293
60.2704
48.0336
40.2176
35.0446
32.9397
33.1859
33.0653
32.1311
30.7927
29.2136
27.727
26.2695
24.8205
23.3909
21.9936
20.621
19.3036
18.2871
17.3153
16.3125
15.334
14.4056
13.5958
12.9856
12.4018
11.7952
11.2253
10.745
10.3177
9.88564
9.45626
9.04493
8.63744
8.20434
7.74411
7.2704
6.79297
6.30658
5.79978
5.27254
4.73403
4.19944
3.68143
3.18521
2.71097
2.25868
1.82861
1.4196
1.03057
0.660282
0.308977
-0.0223726
-0.332817
-0.621886
-0.888755
-1.13233
-1.35414
-1.5502
-1.73171
-1.87783
-2.0354
-2.11903
-2.2527
0.571861
2.02276
0.0204784
-2.11736
-3.76952
-5.03109
-6.08595
-6.91829
-7.51776
-7.9172
-8.1481
-8.23601
-8.20157
-8.06391
-7.84067
-7.54751
-7.20208
-6.82413
-6.43704
-6.06327
-5.71814
-5.31751
-4.78756
-4.03627
-3.04552
-1.7313
0.0829898
2.61844
6.09881
10.7211
16.5777
23.4693
30.7492
37.4629
42.8723
46.962
50.3122
53.3572
55.7003
56.1406
53.389
46.5636
35.1033
18.9418
10.5817
-0.00682035
-9.1253
-10.4738
0.417367
29.7658
47.9835
77.1785
104.154
122.354
130.499
130.979
125.998
117.761
111.47
104.564
97.8706
90.2588
82.1918
74.0728
67.0366
62.9974
69.1534
77.4321
93.5372
112.575
132.105
147.656
181.741
221.868
256.449
291.509
320.204
315.398
256.337
201.963
134.493
70.5666
25.323
-3.70314
-21.5987
-29.1599
-27.7759
-24.0026
-23.2812
-25.5407
-26.8489
-37.8698
-88.0062
-131.833
-167.507
-187.627
-193.543
-188.501
-175.55
-157.835
-133.489
-108.001
-77.5153
-43.8565
-13.912
9.93748
47.8076
87.223
118.925
145.625
166.315
178.623
180.21
172.157
157.129
137.187
113.994
90.438
69.0434
50.8
36.6199
27.5159
21.9383
20.0252
21.2039
22.8298
23.5702
23.8048
23.9199
23.808
23.3741
22.727
21.9283
20.9747
20.046
19.1261
18.1879
17.2565
16.3388
15.5068
15.0152
14.5709
13.9204
13.2702
12.7593
12.3709
11.9009
11.3886
10.8994
10.4466
9.961
9.42463
8.86527
8.31112
7.76568
7.20395
6.61666
6.01543
5.41853
4.8447
4.30237
3.78523
3.28771
2.80892
2.34885
1.90858
1.48875
1.09108
0.718862
0.373191
0.0545626
-0.238355
-0.506789
-0.752716
-0.97193
-1.17496
-1.34216
-1.51844
-1.6166
-1.77311
0.47785
1.81339
0.490411
-1.30407
-3.03043
-4.5392
-5.65146
-6.44609
-7.0548
-7.44762
-7.68899
-7.79039
-7.76794
-7.63955
-7.42391
-7.13746
-6.79873
-6.4316
-6.07298
-5.77685
-5.40444
-4.86917
-4.28666
-3.51674
-2.57143
-1.39264
0.12048
2.1062
4.72189
8.15115
12.5371
17.8221
23.58
29.0786
33.7247
37.5209
41.0324
44.7703
48.5788
51.0814
50.9228
47.0918
39.0753
26.3265
17.6656
8.65631
0.569971
-1.248
7.46979
31.9286
47.988
71.8036
93.2469
107.269
109.873
112.92
112.117
110.735
108.351
104.986
100.329
93.786
84.5777
71.7821
56.543
39.5685
25.4406
19.9377
25.1766
44.2198
72.5479
112.118
148.599
179.425
219.955
258.54
293.556
327.541
329.917
229.759
166.262
99.9383
52.3346
22.9686
3.66643
-11.1177
-21.498
-27.5627
-29.4543
-29.4141
-29.3473
-29.9753
-31.1514
-42.2004
-88.3717
-121.888
-148.878
-165.584
-174.909
-177.287
-172.923
-161.944
-148.751
-129.046
-101.574
-71.8439
-35.4558
-5.82856
34.3337
84.9208
126.239
163.74
191.092
202.694
200.239
188.002
166.405
137.976
107.31
78.2893
53.8321
34.312
20.2483
11.7247
7.21992
7.09731
9.69338
13.1024
16.2314
19.1976
20.9989
22.0573
22.65
22.6863
22.0597
21.3262
20.6316
19.9317
19.1803
18.3559
17.6219
16.9482
16.1867
15.4342
14.8746
14.7136
14.2026
13.5683
12.9662
12.497
12.0024
11.3888
10.7246
10.0734
9.46835
8.85826
8.2033
7.52243
6.84422
6.19881
5.60443
5.04386
4.49653
3.9602
3.43797
2.93522
2.45523
2.00142
1.58321
1.20052
0.848911
0.524608
0.225854
-0.0491759
-0.296489
-0.525117
-0.717254
-0.913477
-1.03577
-1.22251
0.379253
1.44187
0.357236
-1.32824
-2.92326
-4.26624
-5.38939
-6.29554
-6.93828
-7.33969
-7.5801
-7.68181
-7.67166
-7.5646
-7.37393
-7.11348
-6.79853
-6.44785
-6.08197
-5.72081
-5.37911
-5.11392
-4.60887
-3.67348
-2.79106
-1.77237
-0.536258
0.997657
2.91328
5.34368
8.44782
12.266
16.5463
20.8118
24.648
28.051
31.4727
35.0017
37.2561
40.7819
43.2055
43.0834
39.6922
32.6707
24.9426
17.3348
10.637
7.38735
12.0291
26.6235
42.2254
59.0531
75.6803
88.1167
98.021
101.715
103.013
102.924
104.063
105.276
105.259
102.326
97.1574
85.0139
70.84
50.3188
25.8097
10.1294
2.75448
8.96026
24.5819
40.3463
80.9507
149.434
198.063
234.604
282.233
328.046
331.977
281.689
193.167
120.012
64.4313
25.8057
2.48796
-9.53352
-15.6074
-20.9098
-25.2786
-26.2086
-27.347
-29.0158
-30.5312
-30.6381
-33.6265
-57.1989
-86.0745
-111.866
-131.723
-147.505
-159.692
-167.656
-171.11
-170.402
-161.963
-148.071
-124.325
-83.54
-60.822
-14.0124
40.2566
99.1556
154.368
198.52
221.573
226.147
216.776
193.261
160.255
123.154
87.0268
56.4328
32.2665
14.6971
3.37334
-2.34872
-6.51849
-4.42179
-1.97271
6.05924
11.4717
15.3986
19.0185
21.5157
22.7788
23.3625
23.5551
23.5446
23.3237
22.7377
21.638
20.5499
19.7182
18.8957
18.0819
17.4865
16.7361
15.9131
15.1459
14.6629
14.3252
13.6271
12.8323
12.0536
11.3893
10.774
10.0494
9.27059
8.49071
7.7545
7.103
6.50887
5.90951
5.30441
4.70581
4.12692
3.57491
3.05353
2.58409
2.16296
1.77512
1.41374
1.07752
0.766233
0.484476
0.224132
0.00321081
-0.217256
-0.359971
-0.584041
0.261218
0.461814
-0.653055
-2.17258
-3.58687
-4.79976
-5.79243
-6.5569
-7.14038
-7.54819
-7.8057
-7.94231
-7.96727
-7.90396
-7.75942
-7.54474
-7.2724
-6.95246
-6.59333
-6.20762
-5.80518
-5.39478
-4.98376
-4.67883
-4.06708
-2.89558
-1.91463
-0.863047
0.41855
2.05609
4.19945
6.89072
9.90437
11.8494
14.4889
16.8533
19.6752
23.6267
31.8068
35.9983
39.2942
40.5275
38.9207
34.6889
29.8202
24.0878
18.1615
15.7791
15.6296
22.9246
33.5254
46.6671
56.3594
69.5123
73.085
79.8449
83.5076
86.8284
90.2505
94.0854
96.2972
96.0147
93.7131
84.4855
69.9895
56.4549
26.7965
9.47244
-1.433
-0.29175
17.3416
27.5234
48.5058
94.5083
149.73
214.529
271.994
334.534
378.883
307.051
185.795
125.481
77.4303
38.6692
8.67325
-10.6196
-20.0427
-22.9587
-23.5878
-23.8749
-24.0278
-24.8962
-26.9222
-27.9328
-27.2109
-30.4627
-42.6994
-62.5944
-83.3399
-101.01
-117.951
-135.047
-150.09
-164.448
-176.312
-183.39
-179.914
-168.149
-145.769
-92.4862
-64.6508
-17.357
71.545
140.973
201.634
237.084
250.676
243.285
215.657
177.715
135.295
94.2537
58.3393
30.6099
10.8873
-0.78733
-10.5971
-16.7304
-16.7327
-12.6408
-6.74167
-0.950375
4.99458
12.7138
16.5935
20.1896
22.638
24.128
25.2215
25.6123
25.4635
25.175
24.7423
24.0438
22.9801
21.4472
20.4115
19.4898
18.5424
17.6539
16.894
15.9936
15.0531
14.1283
13.3813
12.9148
12.1139
11.2155
10.3193
9.47596
8.76185
8.17853
7.53215
6.84582
6.15597
5.48777
4.85297
4.25192
3.72845
3.27418
2.84771
2.44155
2.05872
1.7026
1.37897
1.07974
0.827487
0.579104
0.414332
0.156384
0.135739
-0.437991
-2.0806
-3.62813
-4.88864
-5.92346
-6.75845
-7.41221
-7.90452
-8.25055
-8.46232
-8.53895
-8.56697
-8.54639
-8.42926
-8.22616
-7.98084
-7.6919
-7.3656
-7.0026
-6.60806
-6.19069
-5.77652
-5.39617
-5.0884
-4.88797
-4.60806
-3.67967
-2.74189
-1.93065
-0.926615
0.650571
2.4121
6.17591
9.47029
11.9891
14.628
18.0807
20.815
26.5286
31.3408
34.4719
35.3429
33.0248
29.0012
25.8614
22.0133
19.202
18.8045
20.4403
26.1425
33.78
41.2373
47.6034
57.4503
57.7657
59.8035
63.7273
67.5433
72.1323
73.547
75.2672
71.5836
59.9656
51.4088
38.5917
17
1.33371
-9.23517
-8.93339
7.94745
19.0291
42.3406
90.9734
143.515
191.255
254.789
336.12
384.943
319.494
178.058
115.342
68.3677
31.753
6.77401
-7.96327
-17.1064
-21.0159
-21.68
-22.0966
-22.4778
-22.7952
-23.518
-24.772
-25.6147
-25.6514
-27.1818
-34.0352
-47.0657
-62.1595
-76.927
-92.8034
-109.936
-128.699
-149.777
-171.251
-191.465
-204.495
-202.697
-186.37
-154.084
-90.2564
-53.3603
33.1678
126.313
203.796
251.202
273.052
266.897
234.478
189.43
143.058
98.5618
59.5864
30.0509
8.83784
-1.27823
-13.6003
-20.5123
-22.9987
-21.5796
-17.5597
-11.2722
-4.84647
0.0591501
5.31504
11.7396
15.4751
19.1436
22.0874
23.9724
25.3164
26.1771
26.3532
26.1494
25.5782
24.9646
24.3107
23.37
21.9313
20.3318
19.1855
18.1439
17.1072
16.0897
15.2223
14.2115
13.1733
12.1715
11.2292
10.4373
10.0078
9.31438
8.53333
7.74396
6.98123
6.26003
5.57252
4.99667
4.53517
4.06979
3.60951
3.17045
2.76166
2.39021
2.04515
1.76114
1.48212
1.29043
0.998291
-0.174948
-2.95022
-4.15277
-5.28882
-6.31505
-7.18612
-7.90579
-8.48479
-8.93718
-9.27654
-9.51186
-9.65235
-9.69491
-9.65904
-9.58492
-9.5352
-9.39329
-9.19354
-8.94232
-8.6097
-8.27856
-7.93352
-7.58302
-7.2118
-6.75768
-6.49544
-6.64999
-6.79233
-6.58589
-5.50086
-4.71667
-4.02656
-3.00269
-1.97691
-0.749752
1.49867
4.20474
7.30761
10.8159
14.3892
18.7402
22.428
25.6411
26.9302
24.806
22.6566
19.9464
17.475
16.2951
16.5667
18.2269
22.016
26.4943
26.8325
31.6795
36.499
41.8343
43.6181
47.2849
49.1273
51.0433
53.3382
52.699
45.2794
38.0141
25.1239
3.8332
-7.42746
-13.5276
-6.65915
3.79405
17.825
43.8848
100.361
141.984
191.379
269.022
367.073
404.216
304.63
159.067
102.974
59.1135
22.6016
-2.23731
-14.3509
-18.0968
-18.7526
-19.8272
-19.6851
-19.7025
-20.2801
-21.1506
-22.1172
-23.2213
-24.0882
-24.2136
-24.7769
-28.5307
-36.9612
-47.5411
-58.5473
-71.5799
-88.3063
-108.66
-132.438
-161.796
-192.227
-218.555
-232.483
-225.937
-198.065
-144.092
-64.4328
-16.3075
126.368
208.893
266.383
293.595
285.485
248.079
195.971
146.325
100.046
60.4232
30.9459
9.97334
0.444962
-11.7428
-17.305
-21.2726
-22.9728
-22.0178
-19.3048
-15.237
-10.1484
-4.91058
-0.813938
2.72774
7.48218
10.4697
13.3934
16.4647
19.2208
21.3493
23.2625
24.4669
25.1117
25.1716
24.5946
23.7694
22.8662
21.9182
20.9318
19.67
18.0369
16.8068
15.692
14.6333
13.6262
12.676
11.9272
11.0758
10.1971
9.32829
8.48863
7.69425
6.9333
6.30729
5.91627
5.40886
4.88541
4.38528
3.9221
3.50275
3.10927
2.80272
2.49186
2.26852
1.93826
-0.664971
-6.16979
-7.93463
-8.67054
-9.22919
-9.7204
-10.1568
-10.5376
-10.8605
-11.1236
-11.3251
-11.4587
-11.5051
-11.4961
-11.4439
-11.3328
-11.2194
-11.0936
-10.98
-10.9963
-10.9244
-10.8309
-10.7146
-10.5767
-10.4066
-10.2646
-10.1344
-10.5967
-11.3236
-11.6206
-10.8496
-10.0806
-9.19726
-8.60428
-8.1118
-7.0756
-5.2539
-2.22586
2.66542
7.78876
12.3286
16.2111
18.6131
19.3635
19.997
18.1163
14.974
11.7806
9.33723
7.92587
7.97661
8.56356
9.56014
10.8425
13.0861
13.2532
16.0075
20.7111
23.5284
24.9121
25.8438
26.2028
25.0883
17.0189
12.554
3.05462
-4.8213
-13.3954
-15.1109
-3.89952
7.27751
30.3343
63.2496
102.197
145.437
207.803
306.566
405.329
397.064
253.634
120.102
75.8063
35.6366
6.93337
-7.34878
-14.1086
-15.3404
-17.0719
-17.6949
-17.4226
-17.2106
-17.5789
-18.5886
-19.7951
-20.8662
-21.8471
-22.5222
-22.5819
-22.7748
-24.8679
-30.1742
-37.1825
-45.1195
-54.9046
-69.1136
-89.3728
-116.717
-150.384
-190.154
-228.812
-256.6
-261.095
-234.447
-177.447
-85.6372
-29.7404
112.226
217
282.884
311.601
298.89
255.644
198.78
146.411
100.267
62.1486
33.2037
14.1152
2.827
-6.65521
-11.5945
-14.5607
-16.583
-17.718
-18.3505
-17.4645
-15.8759
-13.905
-11.1878
-8.08591
-5.11441
-2.8614
0.0537551
3.55765
5.92328
8.1244
10.468
13.1126
15.3915
17.4769
19.2365
20.6087
21.3829
21.4687
21.0391
20.3035
19.4457
18.534
17.5342
16.5407
15.4677
14.0512
13.0151
12.0894
11.2001
10.3329
9.49989
8.70738
7.97467
7.37415
6.76088
6.17114
5.62174
5.11809
4.66311
4.22895
3.93385
3.58847
3.3289
2.95861
-1.02683
-7.54477
-9.72631
-10.6784
-11.2668
-11.7104
-12.0811
-12.4049
-12.6908
-12.9427
-13.1638
-13.3614
-13.5612
-13.7374
-13.8828
-14.0022
-14.1051
-14.1943
-14.2318
-14.2783
-14.4337
-14.6532
-14.9393
-15.2717
-15.6127
-16.0739
-16.6417
-17.3504
-18.3895
-19.6633
-20.6089
-20.6914
-20.481
-19.5558
-17.5175
-15.605
-13.4227
-10.6405
-7.75946
-3.50846
1.22809
5.81955
9.42985
12.0999
12.5213
11.2282
9.17631
6.54377
2.99286
-0.0914064
-2.33006
-4.01704
-4.50044
-3.94194
-2.59412
0.0671008
2.43787
3.8949
5.79265
7.66037
8.59784
8.16736
6.82566
0.0630874
-3.18871
-7.73883
-15.4296
-17.238
-9.97336
-0.710593
10.7004
48.4866
80.9323
120.701
177.487
267.781
383.43
432.866
334.435
166.592
80.7791
46.9566
12.4866
-8.38273
-13.8277
-13.905
-15.8354
-15.6446
-14.942
-14.5259
-14.6646
-15.2392
-16.1942
-17.4549
-18.7373
-19.7929
-20.5462
-20.9506
-21.1322
-21.5766
-23.0822
-26.4577
-31.2703
-36.9707
-44.1475
-55.6572
-74.7588
-103.826
-143.663
-190.509
-239.086
-276.561
-288.384
-261.641
-201.588
-97.2514
-31.875
111.711
231.016
299.181
323.688
303.938
254.825
195.738
142.373
98.7225
63.367
36.3592
18.3808
5.96621
0.798397
-6.0046
-8.77845
-10.4621
-10.8173
-11.3244
-11.5535
-11.5371
-11.4771
-11.6685
-11.2908
-10.7756
-9.86185
-8.91046
-7.81849
-6.03197
-4.92161
-2.68899
-0.199374
1.88778
4.19681
6.29148
8.40681
10.4994
12.1539
13.5781
14.8162
15.7063
16.2579
16.3112
15.9378
15.2956
14.5937
13.8708
13.115
12.3254
11.5174
10.7474
9.89128
8.87301
8.12756
7.49441
6.92707
6.40768
5.93162
5.47642
5.09959
4.69839
4.4031
4.00282
-1.4126
-8.58209
-10.9494
-12.038
-12.7097
-13.1949
-13.5843
-13.9209
-14.2245
-14.5075
-14.7806
-15.0538
-15.339
-15.6471
-15.986
-16.3681
-16.8103
-17.3421
-18.0346
-18.7971
-19.6453
-20.6066
-21.7217
-22.7475
-23.6286
-24.6593
-25.8157
-27.1677
-28.8124
-30.7789
-32.9735
-35.1107
-36.3261
-37.093
-36.4041
-34.7059
-32.5028
-30.0173
-26.7902
-22.2026
-16.032
-9.47239
-3.67709
0.601145
2.64794
2.93223
2.15401
0.358396
-1.74969
-4.47599
-8.0632
-10.8632
-12.0847
-10.7239
-9.64929
-7.21368
-4.43765
-2.014
-0.0235043
1.31496
1.87356
1.21163
-0.453101
-3.64221
-6.77793
-10.1772
-11.4808
-5.49007
0.123479
22.4672
46.1167
72.4301
111.134
163.954
239.92
358.522
451.517
388.272
213.109
80.574
45.4083
12.9705
-6.30845
-11.2016
-11.2655
-13.0956
-13.9122
-13.8726
-13.1993
-12.7068
-12.8394
-13.5167
-14.479
-15.5914
-16.7637
-17.8473
-18.688
-19.3019
-19.8479
-20.4513
-21.2921
-22.6455
-24.8871
-28.3426
-32.5809
-38.1641
-47.4439
-66.0881
-98.0084
-144.355
-200.598
-255.758
-298.187
-310.16
-274.047
-203.553
-95.0919
-25.3382
130.018
253.092
316.604
329.435
298.341
244.636
185.803
133.965
94.2846
62.5519
37.9819
21.4159
10.743
3.49271
-0.685465
-3.57593
-4.78703
-5.84089
-6.6019
-6.97895
-7.01548
-6.58302
-6.74101
-6.95433
-7.14817
-7.38391
-7.66466
-8.06769
-8.69365
-8.5256
-8.24787
-7.78476
-7.02737
-6.05503
-4.89727
-2.54535
-1.1259
0.525897
2.33189
4.25109
5.90321
7.37094
8.56535
9.47703
10.1574
10.5669
10.7141
10.6943
10.5454
10.3255
9.92884
9.39007
8.84969
8.33401
7.85166
7.39569
6.96646
6.57829
6.1148
5.69719
5.41343
5.02824
-1.79257
-9.21623
-11.7349
-12.9507
-13.7107
-14.256
-14.69
-15.0629
-15.4051
-15.739
-16.082
-16.4485
-16.8584
-17.3312
-17.8939
-18.5837
-19.4268
-20.4404
-21.7021
-23.0029
-24.2718
-25.6887
-27.359
-29.1082
-30.9854
-33.0649
-35.3868
-38.0252
-41.2497
-44.675
-48.5497
-52.8305
-57.4927
-61.1704
-63.3767
-64.6555
-64.3309
-62.3509
-58.8492
-53.4626
-44.5673
-34.8278
-25.7492
-18.1881
-12.6561
-9.21489
-7.51441
-7.37558
-8.01823
-10.2689
-11.8528
-12.8674
-12.8369
-10.8559
-9.62883
-7.32365
-4.27899
-1.73947
0.333762
1.66676
2.22608
1.866
0.985143
-0.548892
-1.45974
-1.6854
0.287521
13.2342
35.2776
46.6524
71.2332
108.942
162.224
237.498
340.527
444.122
423.938
253.356
91.0577
47.957
13.995
-7.4063
-10.1491
-10.8952
-12.7768
-12.8897
-12.6608
-11.8483
-11.004
-10.7771
-11.2351
-12.0938
-13.0969
-14.1172
-15.0809
-15.9755
-16.8578
-17.7626
-18.6636
-19.5879
-20.6269
-21.8206
-23.1749
-24.7945
-27.1837
-30.3105
-34.6379
-42.7007
-62.302
-99.5107
-154.978
-220.817
-280.74
-320
-320.415
-270.076
-188.614
-79.6647
-10.6401
162.147
278.289
330.24
326.292
284.026
227.159
171.493
123.604
88.1427
59.9735
38.8456
23.5211
13.6578
6.878
3.13038
0.626485
-1.02825
-2.05294
-2.64454
-2.74223
-2.47855
-2.75607
-3.14413
-3.53719
-3.91292
-4.29973
-4.58507
-4.57436
-4.94008
-5.33081
-5.65294
-5.86525
-6.06964
-6.1247
-6.35861
-6.05264
-5.5038
-5.02946
-3.81474
-2.76729
-1.69185
-0.626386
0.480163
1.56403
2.58088
3.52361
4.30214
4.96121
5.52986
5.94022
6.18436
6.31372
6.36214
6.35338
6.3056
6.23669
6.18002
6.09791
5.97266
5.90192
5.72815
-2.04113
-9.51732
-12.151
-13.4708
-14.3169
-14.9345
-15.4301
-15.8623
-16.2692
-16.682
-17.1302
-17.6382
-18.2463
-18.9565
-19.8882
-20.9987
-22.213
-23.6693
-25.4548
-27.4198
-29.6273
-32.2253
-35.0161
-38.0076
-41.2104
-44.6168
-48.2219
-52.0132
-55.8098
-60.2686
-65.3627
-71.1891
-78.0962
-84.2429
-90.0335
-94.5368
-96.9133
-96.9829
-94.562
-89.8262
-81.5617
-73.5999
-64.7937
-55.4144
-46.4136
-38.418
-31.6683
-26.4731
-22.6108
-20.6602
-18.0727
-15.3658
-12.0223
-10.0069
-7.26827
-3.51962
-0.576112
2.16734
4.44963
6.16128
7.3137
7.78227
8.11626
8.95548
9.46775
14.7029
30.7517
47.0359
54.0218
76.6647
116.655
165.339
231.704
341.893
451.164
433.923
264.601
94.8443
47.2458
15.4796
-5.88323
-8.42859
-10.9069
-11.4823
-11.0229
-11.2044
-11.1511
-10.401
-9.61938
-9.52346
-10.098
-10.9686
-11.8843
-12.7484
-13.4728
-14.1666
-15.1029
-16.284
-17.5455
-18.821
-20.1804
-21.6042
-23.0392
-24.4799
-25.818
-27.1819
-29.2787
-32.3765
-40.4055
-63.5873
-109.933
-177.243
-250.776
-309.13
-335.745
-315.943
-251.335
-164.907
-52.9565
12.7538
205.994
297.035
334.291
314.148
262.78
205.63
155.156
112.714
80.8681
56.5611
38.1741
25.1382
15.8692
10.1822
6.27104
3.84486
2.6345
1.65925
1.58235
1.3377
0.950112
0.56049
0.143018
-0.354876
-0.696387
-0.905599
-0.999206
-1.53947
-2.06571
-2.56879
-2.99167
-3.31477
-3.41574
-3.11749
-3.13093
-3.16062
-3.00724
-2.80672
-2.42753
-2.04841
-1.79312
-1.60303
-1.0339
-0.393274
0.25774
0.86995
1.45283
2.01282
2.49744
2.90563
3.26747
3.59993
3.9161
4.20948
4.46996
4.71192
4.93108
5.13166
5.35138
5.53306
-2.28709
-9.5552
-12.2078
-13.6261
-14.5782
-15.2997
-15.8988
-16.4401
-16.9737
-17.5547
-18.2418
-19.1075
-20.1014
-21.2799
-22.7933
-24.5972
-26.6806
-29.1869
-32.149
-35.5363
-39.4064
-43.6733
-48.2805
-53.1119
-58.0628
-63.033
-67.9502
-72.624
-77.1306
-81.6884
-86.4427
-91.3871
-95.8806
-101.142
-107.078
-111.586
-114.571
-115.726
-114.918
-112.582
-109.817
-105.746
-99.2899
-90.6963
-80.7653
-70.3531
-59.9148
-50.217
-41.5931
-32.961
-26.4576
-18.4236
-14.4933
-8.79829
-3.92399
0.75983
4.89867
8.4513
11.6368
14.1801
16.2786
18.3811
19.874
22.7857
33.9163
46.7082
54.4163
62.4873
91.4065
128.01
179.283
244.453
331.102
415.912
443.395
264.879
93.3673
34.5486
10.7292
-6.89349
-8.81099
-9.99319
-11.1577
-10.8336
-10.5786
-10.5177
-9.96574
-8.9131
-8.20178
-8.36251
-9.10817
-9.97368
-10.7557
-11.3871
-11.8747
-12.4646
-13.4677
-14.8668
-16.459
-18.0921
-19.7904
-21.5375
-23.2515
-24.9408
-26.5042
-27.608
-27.9864
-28.637
-30.7061
-40.5444
-71.9594
-131.956
-211.104
-286.147
-333.172
-338.416
-298.498
-214.586
-106.991
-41.9608
67.5795
233.714
304.036
325.028
293.418
237.003
182.995
138.489
101.756
72.9595
52.2852
36.8619
25.7214
18.1855
13.2601
10.101
7.91516
6.77205
6.01098
5.47267
4.93167
4.46788
4.11695
3.9173
3.54663
2.93892
2.49053
1.74176
0.965096
0.387318
-0.0667753
-0.383429
-0.481313
-0.245038
-0.419783
-0.619634
-0.679111
-0.686937
-0.544858
-0.298878
0.0373887
0.609659
0.970963
1.32692
1.68849
2.03911
2.37415
2.66957
2.93497
3.1725
3.39126
3.58092
3.70647
3.91806
4.15156
4.36465
4.55444
4.72487
4.93924
5.18667
-2.17934
-9.14309
-11.9484
-13.5046
-14.607
-15.4939
-16.2906
-17.0871
-17.9775
-18.9924
-20.1926
-21.7411
-23.5913
-25.8937
-28.7718
-32.2355
-36.3459
-41.1154
-46.5845
-52.786
-59.8604
-67.1493
-74.53
-81.8734
-88.9234
-95.4033
-101.214
-106.315
-109.754
-112.188
-113.949
-114.948
-115.975
-117.12
-117.283
-117.869
-118.042
-117.516
-115.998
-113.466
-110.484
-106.833
-101.812
-95.011
-86.4906
-76.8855
-66.1382
-55.3056
-45.9112
-33.0377
-26.9658
-18.5768
-9.857
-3.08778
3.33577
9.24844
14.4376
18.8774
23.29
26.3997
29.2759
35.3756
43.2478
52.3893
57.4032
65.0475
81.9886
109.704
143.871
194.848
238.387
353.651
463.282
340.302
114.626
47.6018
18.4432
7.03871
-7.83103
-8.47809
-10.7408
-11.5894
-11.1373
-9.91012
-9.23373
-9.13045
-8.61867
-7.6837
-7.19273
-7.54801
-8.32625
-9.06166
-9.61898
-9.98963
-10.3022
-10.8895
-11.9883
-13.5515
-15.4144
-17.3842
-19.4009
-21.481
-23.54
-25.5185
-27.4551
-29.1847
-29.8504
-28.7963
-27.7048
-29.8349
-45.2628
-91.0567
-167.072
-252.714
-317.871
-344.031
-324.337
-264.407
-166.82
-70.6301
-9.27932
138.344
243.515
298.524
304.079
265.3
209.152
160.692
122.349
90.8157
66.2289
47.8252
35.308
26.4313
20.4831
16.6888
14.1977
12.7039
11.7655
11.0671
10.2887
9.5184
9.00983
8.4025
7.7093
6.92717
6.16184
5.38311
4.76658
4.08285
3.50283
3.03577
2.6676
2.25477
1.86666
1.55933
1.35951
1.26457
1.32809
1.53844
1.90088
2.3889
2.59949
2.79378
2.99827
3.20486
3.40442
3.58618
3.74961
3.90134
4.04855
4.19108
4.40367
4.56018
4.67866
4.793
4.90373
4.99769
5.09212
5.23658
-2.15177
-8.62918
-11.5054
-13.2643
-14.6128
-15.839
-17.0865
-18.4844
-20.1824
-22.2445
-24.8411
-28.126
-32.1134
-36.8886
-42.5587
-49.223
-57.0116
-65.3086
-74.2031
-83.8858
-95.2197
-105.106
-114.186
-122.553
-129.962
-136.137
-140.639
-143.18
-144.524
-144.303
-142.648
-139.68
-135.807
-131.272
-126.123
-120.726
-114.77
-108.488
-102.138
-94.5576
-87.8677
-82.2557
-76.084
-70.0529
-63.0776
-55.5339
-47.9857
-35.1198
-29.7468
-18.1597
-10.236
-2.28526
5.48337
12.6419
19.3236
25.5792
30.6671
35.4492
40.8749
46.7467
53.9879
56.2959
63.2709
69.3568
83.2252
101.369
126.92
162.532
205.204
278.935
300.661
394.636
399.823
362.637
183.115
31.4441
0.364235
-10.8175
-11.3077
-10.8727
-10.5513
-11.1407
-10.5071
-9.16701
-8.63356
-8.49117
-7.74612
-6.7437
-6.40408
-6.90156
-7.64813
-8.18405
-8.46964
-8.58499
-8.78732
-9.44423
-10.6707
-12.3631
-14.4326
-16.6962
-18.9931
-21.3743
-23.8208
-26.099
-28.2692
-30.6638
-32.4568
-31.8555
-28.754
-26.5694
-31.7818
-59.167
-124.048
-212.73
-292.568
-336.149
-336.187
-294.444
-218.151
-117.701
-38.0785
41.8294
182.016
246.985
281.705
274.381
232.749
181.072
139.412
106.958
80.2868
59.8082
44.9664
34.4936
27.4816
23.1491
20.7999
19.1531
18.036
17.2263
16.5054
15.7585
15.0875
14.3414
13.3824
12.1002
10.9821
9.97481
8.89359
7.9141
7.11025
6.42528
5.7877
5.23037
4.72089
4.25664
3.89317
3.64814
3.55179
3.55404
3.65978
3.76232
3.82408
3.90159
3.9993
4.10834
4.21928
4.32466
4.42567
4.52524
4.62768
4.74847
4.9303
5.0202
5.07355
5.13389
5.21169
5.29665
5.41668
5.49543
-2.17537
-8.08794
-11.078
-13.1174
-15.0015
-17.0361
-19.4739
-22.4727
-26.2197
-30.7254
-36.1087
-42.7046
-49.9928
-57.9153
-66.4729
-76.0714
-87.2967
-96.9738
-106.124
-115.103
-122.171
-129.785
-137.182
-144.179
-150.418
-155.579
-159.307
-161.4
-161.803
-160.387
-157.176
-152.32
-146.001
-138.371
-129.953
-120.631
-110.346
-98.0218
-87.2777
-75.0475
-58.1828
-51.4449
-35.9221
-29.114
-21.3873
-14.1322
-6.23002
1.64387
7.83186
15.2716
21.8217
27.9502
33.9126
39.3189
44.8837
49.8693
54.9299
60.6896
63.4081
66.9964
72.3763
78.4963
89.9645
100.37
121.307
143.258
182.468
204.491
272.525
342.476
476.657
256.797
-55.7329
-71.0311
-11.8554
-1.26565
-3.09408
-11.9183
-10.7719
-10.2248
-10.8236
-10.9605
-9.60311
-8.0955
-7.78683
-7.72475
-6.9024
-5.98245
-5.83222
-6.38127
-6.99115
-7.26222
-7.26052
-7.17048
-7.33868
-8.10379
-9.48952
-11.3093
-13.5293
-16.0305
-18.5812
-21.2108
-24.0181
-26.671
-29.0149
-31.7257
-34.6518
-35.6251
-32.6929
-27.5262
-26.9205
-40.0421
-85.9652
-170.541
-259.433
-318.834
-335.363
-312.34
-251.051
-161.241
-59.3237
-11.0856
112.639
187.522
236.786
254.999
239.275
198.974
154.179
119.413
92.2715
70.4656
54.1725
42.6705
35.0714
30.4079
27.6198
25.8318
24.6097
23.7001
23.1297
22.6811
21.8592
20.8846
19.7693
18.4299
17.0521
15.7126
14.3228
12.8338
11.5931
10.5841
9.61281
8.66313
7.78075
7.1081
6.55411
6.11831
5.82752
5.66354
5.56253
5.4389
5.33654
5.27268
5.24221
5.23303
5.23579
5.24513
5.25983
5.27688
5.30234
5.3432
5.39257
5.41078
5.42711
5.45948
5.52204
5.62581
5.73457
5.82589
-1.79452
-7.83567
-10.8951
-13.7203
-16.9911
-21.0504
-26.1834
-32.2357
-39.0933
-46.2599
-53.7533
-63.2049
-71.3723
-79.2457
-86.3853
-93.3804
-98.4063
-104.157
-110.108
-116.2
-121.794
-127.127
-132.075
-136.577
-140.53
-143.664
-145.672
-146.233
-145.351
-143.15
-139.346
-133.968
-127.194
-118.595
-109.689
-99.7332
-89.4654
-74.433
-65.046
-51.3777
-29.9076
-16.5392
-2.32456
9.57582
20.0779
28.9884
37.1068
44.1592
49.8562
55.1306
59.5926
63.4782
67.1736
70.5866
73.1123
75.487
78.0627
81.0068
85.0465
89.3704
96.7651
103.853
118.354
133.524
157.288
185.166
233.948
262.461
297.925
264.039
291.222
279.418
180.398
48.818
-4.10124
-12.8175
-14.8905
-12.0896
-10.6814
-10.6386
-11.0019
-10.4208
-8.68995
-7.34946
-7.3188
-7.20904
-6.1987
-5.33965
-5.36916
-5.89173
-6.29951
-6.28831
-6.01087
-5.78579
-5.98185
-6.87133
-8.41696
-10.3752
-12.7124
-15.3952
-18.186
-21.025
-24.1031
-27.1795
-29.7965
-32.5451
-36.0867
-38.8247
-37.6615
-31.8776
-26.594
-30.9807
-55.6678
-131.061
-221.619
-293.066
-324.218
-318.2
-274.753
-198.993
-94.7806
-35.4126
49.5158
140.671
187.383
217.143
221.869
202.123
166.03
129.02
100.433
78.3749
61.3625
49.3064
41.4887
36.8603
34.2949
32.9133
32.1398
31.6168
31.104
30.333
29.2949
28.0233
26.6406
25.4007
23.7758
21.9868
20.2708
18.6385
17.1493
15.7846
14.4211
12.9351
11.6366
10.6504
9.8098
9.07516
8.48062
8.04511
7.64016
7.30871
7.02846
6.81128
6.64581
6.51191
6.39806
6.3009
6.21705
6.1411
6.07529
6.02266
5.97979
5.94611
5.92597
5.92239
5.96201
6.05452
6.14056
6.22294
-2.30022
-8.80689
-11.9388
-16.0198
-21.3921
-28.1711
-36.2013
-44.5601
-51.9389
-57.8047
-63.1258
-65.8806
-68.285
-73.4763
-77.4995
-80.4974
-83.085
-85.8734
-88.8267
-91.9146
-94.8275
-97.3672
-99.2792
-100.594
-101.315
-101.286
-100.145
-97.8372
-94.4683
-90.8152
-86.2927
-80.8101
-74.7146
-65.5784
-56.175
-50.4307
-36.8039
-31.8115
-20.8046
-7.09954
8.39184
23.202
37.0194
49.1336
59.728
68.4912
75.6908
81.4379
85.9305
89.4025
91.8464
93.3401
94.6055
94.7063
95.8871
96.6147
97.686
100.254
102.713
108.485
116.674
126.956
140.686
166.842
181.279
221.874
220.816
468.587
359.287
186.508
-89.4757
-99.3495
-27.0519
-16.0079
-6.91327
-14.3037
-10.2517
-10.4153
-11.0022
-10.8249
-10.4643
-9.43377
-7.74414
-6.77866
-6.99902
-6.78331
-5.60607
-4.83473
-5.02101
-5.41379
-5.54502
-5.26546
-4.74853
-4.45619
-4.7253
-5.7501
-7.43481
-9.5304
-11.9758
-14.7956
-17.8187
-20.8676
-24.1111
-27.5607
-30.6111
-33.3724
-36.9321
-40.9322
-42.2546
-37.8371
-30.2147
-28.211
-43.6581
-91.1041
-181.828
-260.729
-304.418
-313.041
-288.227
-226.416
-146.976
-45.457
-7.90208
104.669
147.716
176.879
190.56
186.351
165.647
135.085
105.578
82.5466
65.4603
53.1767
45.3886
41.1299
39.2405
38.7407
38.9083
39.2265
39.2974
38.889
38.1161
37.0011
35.4596
33.5353
31.2501
28.8511
26.6203
24.8815
23.222
21.4363
19.6847
17.993
16.4331
15.0838
13.889
12.7656
11.7264
10.9349
10.2827
9.69273
9.1604
8.72432
8.37696
8.07947
7.81181
7.57382
7.36495
7.17735
7.00653
6.8575
6.73813
6.65558
6.59881
6.55558
6.56554
6.62313
6.67453
6.70561
-5.00052
-5.99204
-9.20912
-12.7436
-18.2972
-24.7635
-31.1681
-35.8331
-39.3625
-41.4046
-42.1975
-41.6856
-39.5465
-36.5461
-35.8073
-34.9625
-35.2247
-36.0942
-37.0064
-37.7337
-38.0931
-37.9319
-36.8799
-35.1785
-32.943
-30.1676
-26.551
-22.2307
-17.4876
-11.7885
-5.85077
0.407873
5.50344
14.0253
30.3412
31.6561
38.1395
43.1994
51.1627
57.4753
69.5225
80.4877
90.9041
99.6803
107.032
112.458
115.907
117.867
118.454
118.419
117.54
115.757
114.391
111.557
110.641
109.213
108.661
111.429
112.208
121.593
128.335
142.864
153.62
187.103
199.178
230.322
175.843
-137.451
-15.8618
81.4497
98.4424
34.5581
-4.37102
-11.5477
-14.56
-11.0575
-11.0112
-11.7083
-11.3584
-10.4918
-9.81464
-8.65439
-7.11439
-6.48475
-6.80736
-6.38641
-5.06683
-4.40117
-4.7033
-4.90236
-4.70393
-4.22545
-3.50037
-3.20146
-3.55473
-4.72232
-6.53674
-8.7604
-11.3203
-14.2397
-17.4753
-20.7745
-24.1179
-27.7951
-31.3699
-34.3347
-37.5573
-41.9726
-45.6007
-43.8717
-36.1662
-28.9711
-33.249
-61.8479
-145.625
-224.445
-277.02
-298.96
-291.669
-246.57
-172.165
-79.4155
-24.1439
51.7979
114.909
144.888
159.262
161.054
151.699
131.671
106.809
83.6717
66.1805
53.6819
45.8983
42.0855
41.0528
41.7174
43.2177
44.887
46.1927
46.7753
46.7317
46.2409
44.8707
42.8185
40.3009
37.5658
34.845
32.2842
29.9237
27.6109
25.3323
23.4276
21.6576
19.8859
18.3023
16.9444
15.7385
14.6665
13.7033
12.7929
11.9076
11.1534
10.5679
10.064
9.59707
9.17304
8.8059
8.48216
8.18787
7.92801
7.71939
7.57803
7.48561
7.39034
7.35171
7.36214
7.36883
7.27998
-13.1076
28.0677
-19.9804
-4.07284
3.92154
9.47134
15.842
22.9463
31.2348
37.7735
42.8122
46.7839
48.2284
48.6644
47.6154
48.3606
44.2775
41.3537
40.0903
40.4775
42.2892
45.4346
49.5052
54.543
60.2641
66.3475
72.8776
79.4249
85.8508
92.3793
98.7623
105.151
108.46
120.003
137.052
135.696
137.561
133.467
149.527
134.277
151.568
153.852
159.658
163.946
167.485
167.327
164.746
160.46
154.517
148.714
142.482
135.456
129.929
122.638
118.93
114.475
111.779
114.2
113.484
126.327
128.546
141.749
161.539
171.197
166.476
154.882
194.664
169.483
29.5066
-46.0054
-31.4483
-21.0532
-20.2289
-14.2257
-11.0057
-11.0636
-11.8765
-11.9315
-10.9434
-9.87061
-9.0715
-7.92285
-6.62262
-6.33409
-6.66371
-5.98643
-4.57539
-4.03677
-4.36155
-4.31811
-3.72076
-3.15205
-2.2121
-1.9369
-2.40338
-3.68005
-5.68123
-8.02035
-10.7147
-13.7309
-17.1412
-20.7493
-24.2161
-27.9402
-31.9921
-35.4525
-38.3303
-42.3492
-47.5156
-49.1891
-43.5314
-33.633
-29.8365
-44.9595
-104.268
-182.801
-241.313
-275.402
-285.135
-259.386
-200.273
-129.136
-42.5543
-3.55137
87.2815
117.338
133.69
136.328
130.887
118.662
100.437
80.8982
63.3174
50.3086
41.9129
38.0858
37.6951
39.5643
42.7431
46.4092
49.9334
52.6517
54.2389
54.8245
54.2138
52.6553
50.3955
47.6433
44.5893
41.4464
38.6284
36.1332
33.2867
30.5311
27.9116
25.5023
23.3943
21.772
20.5491
19.2071
17.8775
16.6608
15.549
14.558
13.6991
12.9209
12.1706
11.4622
10.8606
10.3494
9.88414
9.46434
9.1189
8.88127
8.76143
8.58949
8.44409
8.40393
8.25996
7.99737
1.88459
2.72229
2.92748
4.29369
5.43263
7.6515
8.81958
13.1612
17.3201
21.3054
28.4629
35.9014
45.0172
52.9123
64.63
73.8365
87.2037
100.692
114.606
128.474
142.172
155.443
168.434
180.73
192.118
202.402
211.598
219.162
225.574
230.972
235.556
239.605
241.746
246.147
252.291
251.271
250.385
250.128
245.878
245.102
243.931
245.817
234.401
242.021
240.055
234.707
221.946
212.123
196.497
182.677
168.895
154.461
142.423
128.579
120.25
110.552
104.073
105.498
104.323
114.323
103.025
119.179
92.6556
74.5204
57.3745
9.93061
-34.2578
-30.1017
12.3031
14.1689
-13.8853
-13.9949
-14.4945
-11.9776
-11.4648
-12.0275
-12.1938
-11.4006
-10.1016
-9.05996
-8.33862
-7.33619
-6.34087
-6.32289
-6.51661
-5.52804
-4.08772
-3.70907
-3.92135
-3.58068
-2.5794
-1.96735
-0.924492
-0.464183
-1.44088
-2.39156
-4.95022
-7.30621
-10.1728
-13.3415
-16.8945
-20.8284
-24.5185
-28.1017
-32.3533
-36.5767
-39.5821
-42.7353
-48.1119
-52.81
-50.9031
-41.1746
-30.4885
-34.7241
-70.4242
-137.468
-197.735
-240.765
-267.06
-261.232
-220.965
-156.041
-74.3154
-29.6196
37.1474
84.2641
109.352
117.377
112.577
102.196
87.732
71.6445
55.6993
42.4008
33.2974
28.5392
27.7391
29.8542
34.2145
39.7215
45.8219
51.8192
56.509
59.3655
60.8195
61.0472
60.3241
58.6267
56.078
52.8739
49.4473
46.2477
42.8397
39.4715
36.2661
33.3106
30.6489
28.3841
26.6235
24.6778
22.8396
21.2517
19.9575
18.7926
17.6578
16.6097
15.6516
14.7641
13.9485
13.1963
12.4795
11.7996
11.2186
10.7819
10.6679
10.3744
9.99171
9.68943
9.21002
8.87532
-0.211764
0.192468
0.330176
0.859849
0.849409
-3.16696
8.82609
-20.9753
24.0473
-1.96894
-0.0667152
2.97927
5.2508
7.30987
10.0176
13.2194
17.5404
22.4804
29.297
36.937
46.0493
56.2874
67.9676
80.4418
94.0153
108.155
122.372
136.97
150.782
164.226
177.367
190.47
202.466
213.128
223.419
236.403
246.507
256.456
263.087
270.553
275.745
276.077
280.688
272.929
274.818
269.886
235.316
241.542
216.374
192.252
171.602
150.836
131.208
112.316
97.8526
81.5953
74.6091
62.3352
52.7542
46.4431
35.9779
30.6104
20.3036
12.6156
4.00206
5.22534
8.93664
-4.61729
-22.8715
-14.8249
-16.8556
-13.75
-11.511
-11.5843
-12.2519
-12.3923
-11.6382
-10.334
-9.16761
-8.3518
-7.81849
-6.98741
-6.25793
-6.37717
-6.31646
-5.02295
-3.63337
-3.39462
-3.35954
-2.60125
-1.49734
-0.492636
-0.363481
2.21308
-1.03083
-1.73299
-3.96876
-6.58758
-9.72821
-13.1723
-16.8278
-20.9434
-24.8934
-28.3029
-32.3805
-37.3491
-41.2392
-43.8341
-48.2548
-54.5676
-56.7269
-49.7184
-35.8521
-28.2349
-48.3382
-95.2037
-150.741
-198.964
-238.1
-250.377
-230.588
-180.985
-115.651
-49.9932
-9.95188
58.9926
85.0882
98.8092
99.6257
90.4027
76.3379
61.698
47.2943
34.053
24.0052
17.5495
15.0886
16.4232
20.3482
26.231
33.1711
40.4348
47.4747
53.8869
58.9753
61.6602
64.2498
65.4734
65.2148
63.4795
60.2748
56.3226
52.9086
49.5181
46.1154
42.7952
39.6235
36.6317
34.0604
31.5335
29.205
27.1253
25.2659
23.5701
22.0363
20.6897
19.5434
18.5368
17.5541
16.5946
15.6951
14.851
14.0655
13.3236
12.8116
12.278
11.6548
10.8524
10.2936
9.96975
-0.423381
-0.262753
-0.162157
-0.217983
-0.431053
-0.10391
-0.752741
-0.636288
0.234786
-0.711257
-1.07898
1.78257
-5.90902
3.8624
-0.392204
-0.467129
0.406865
0.84637
1.68479
2.43234
3.52226
4.90827
6.68953
8.79862
11.4338
14.5525
17.967
21.9148
26.1455
30.9465
35.7733
41.1332
47.2115
53.2462
57.8496
64.2613
72.3016
78.2627
84.9964
91.3841
97.1164
102.226
107.082
108.424
112.917
107.9
110.287
97.0636
89.321
84.3305
72.8614
61.2147
50.8965
41.2501
32.3703
24.8313
18.9252
14.4418
9.9943
5.49371
1.44177
-0.0106611
-3.85372
-5.46716
-6.39739
-10.1422
-6.93978
-13.1812
-14.0683
-15.5017
-12.9786
-11.5797
-11.7812
-12.2853
-12.2423
-11.5068
-10.301
-9.14552
-8.3102
-7.854
-7.49772
-6.80611
-6.27866
-6.40097
-6.01346
-4.47599
-3.21621
-3.02442
-2.6184
-1.50731
-0.424133
0.609511
1.97984
3.5266
0.156652
-1.49593
-3.5527
-5.80509
-9.43716
-13.266
-16.9744
-20.936
-25.0331
-28.4585
-32.1746
-37.5372
-42.9211
-45.9497
-49.0205
-55.275
-60.719
-57.6958
-44.1585
-29.1722
-33.5425
-62.3621
-103.855
-151.327
-199.46
-227.913
-227.488
-196.377
-144.794
-84.8284
-28.3387
8.68953
65.7637
80.8114
86.773
82.5614
70.9032
55.8459
42.3087
29.7947
18.8859
10.7785
5.97914
4.25751
5.72548
9.50422
14.7458
20.7475
27.2181
33.8079
40.8532
48.8296
53.9899
58.0828
61.0719
62.722
62.7315
61.2371
59.6965
57.7393
55.2194
52.3073
49.1738
45.8149
42.1917
39.2037
36.5531
34.0991
31.7992
29.652
27.6759
25.8831
24.2589
22.7608
21.3661
20.0938
18.9718
17.9729
16.9961
15.9765
14.6953
13.7827
12.9905
12.3411
11.8631
11.5643
-0.37746
-0.361689
-0.336199
-0.383584
-0.421442
-0.469564
-0.583484
-0.545827
-0.632237
-0.745228
-0.68579
-0.844054
-0.93935
-0.802614
-0.911614
-1.03676
-1.18179
-0.63063
-1.65863
-0.638532
-0.853346
-0.812219
-0.657091
-0.457452
-0.156179
0.185021
0.654638
1.05754
1.60143
2.30081
2.91204
3.84121
5.05186
6.00875
6.72378
8.17624
9.77783
10.9524
12.5724
14.0544
15.2672
16.6845
17.7295
18.6949
19.7641
19.6949
20.0494
18.467
17.7025
15.9835
13.9232
12.7076
7.73649
6.33383
3.43744
1.32116
-0.630433
-1.81816
-3.24231
-5.72627
-5.6094
-6.86047
-5.18454
-9.54786
-9.47598
-10.3979
-11.8733
-13.5394
-13.3453
-11.9341
-11.4775
-11.758
-12.0699
-11.8403
-11.0786
-10.0397
-9.02456
-8.29316
-7.83373
-7.60913
-7.31107
-6.71089
-6.31859
-6.32966
-5.59885
-3.92973
-2.8234
-2.53637
-1.72582
-0.348499
0.336837
2.69707
3.59533
4.81816
2.41995
-2.28965
-3.6087
-4.90117
-9.52946
-13.533
-17.1814
-20.6358
-24.5589
-28.2977
-31.9044
-37.1872
-44.1409
-48.8504
-51.2287
-56.1339
-63.3759
-64.7108
-53.7131
-35.0848
-25.6203
-37.5806
-64.0013
-101.236
-152.864
-194.465
-211.038
-199.987
-162.751
-111.265
-50.2944
-20.2
28.3898
62.7157
75.789
76.6208
68.9113
56.188
42.2022
29.9861
17.4387
7.09972
-0.333616
-4.31895
-5.20606
-3.57128
-0.283093
4.24894
9.62592
15.5139
20.9729
24.9758
30.1051
35.1843
39.7396
43.6271
47.1528
50.7474
53.2319
53.9796
53.9303
53.2264
51.8478
49.6051
47.4199
44.9248
42.7231
40.5079
38.2027
35.8957
33.6455
31.4869
29.4365
27.4968
25.675
23.9799
22.4146
20.9454
19.5352
18.1769
16.9475
15.9536
15.1572
14.5728
14.0911
13.852
-0.340593
-0.373872
-0.382763
-0.408593
-0.439038
-0.475195
-0.533559
-0.564308
-0.601568
-0.649285
-0.705265
-0.748476
-0.771015
-0.847731
-0.891276
-0.938463
-1.00833
-1.06363
-1.13822
-1.1342
-1.21523
-1.26109
-1.1737
-1.36415
-1.29454
-1.26555
-1.25458
-1.1729
-1.08157
-0.987951
-0.800674
-0.667826
-0.43021
-0.282343
-0.115449
0.171377
0.502696
0.680791
1.00258
1.28827
1.51492
1.7821
1.97184
2.17106
2.3753
2.40857
2.41291
2.27628
1.94758
1.55886
0.929895
0.212466
-0.797292
-1.98969
-1.89968
-2.4665
-3.27858
-4.06766
-5.09486
-6.12152
-6.70755
-7.94894
-8.10257
-9.1619
-9.65057
-10.9802
-11.84
-11.6297
-11.1091
-11.0697
-11.309
-11.4056
-11.1236
-10.4092
-9.50014
-8.69684
-8.12379
-7.75942
-7.6
-7.49037
-7.19626
-6.66356
-6.32113
-6.13269
-5.10611
-3.41821
-2.40422
-1.7583
-0.596683
0.0879711
1.80711
5.38198
5.06008
5.53562
3.46958
-1.98737
-3.50447
-5.52362
-9.17027
-13.7039
-17.0666
-19.7416
-23.1914
-27.5141
-31.6345
-36.5847
-44.4443
-51.6665
-54.9429
-58.3024
-65.6919
-70.9207
-64.0861
-44.2048
-24.463
-20.4307
-32.7334
-55.6478
-101.713
-151.609
-183.481
-190.258
-171.328
-130.912
-79.3343
-32.2024
-9.33464
42.0406
62.616
70.704
69.0333
60.5721
48.7011
36.2624
24.5429
11.6237
0.967643
-7.479
-13.133
-14.6236
-15.7809
-13.7227
-12.0708
-7.48348
-2.6591
3.11096
8.48429
13.9785
19.1901
23.7579
27.658
30.5055
31.1871
33.4811
35.6308
37.3811
38.7997
39.9269
40.3571
40.7903
40.5807
40.1584
38.9782
37.5677
36.009
34.3501
32.6355
30.9044
29.1939
27.5212
25.9097
24.3483
22.8455
21.4247
20.1411
19.0342
18.1065
17.3188
16.6832
16.3313
-0.341699
-0.378257
-0.402286
-0.426013
-0.453566
-0.481643
-0.519434
-0.556927
-0.580895
-0.613167
-0.658304
-0.688589
-0.717861
-0.756756
-0.812478
-0.840277
-0.888741
-0.944824
-0.995146
-1.03417
-1.08625
-1.13077
-1.17829
-1.2182
-1.24652
-1.27421
-1.30277
-1.25217
-1.27138
-1.25002
-1.25594
-1.19135
-1.12036
-1.07617
-1.01571
-0.953325
-0.894553
-0.807513
-0.707177
-0.60641
-0.527855
-0.436112
-0.374057
-0.173951
-0.0505085
-0.0127369
-0.0178917
-0.0661054
-0.286049
-0.527815
-0.927439
-1.33616
-1.88799
-2.53115
-2.91527
-3.47885
-4.09072
-4.75376
-5.54374
-6.10059
-6.99332
-8.0379
-7.72631
-8.96907
-9.69211
-10.1892
-10.2653
-10.2146
-10.3418
-10.5042
-10.4297
-10.0631
-9.49191
-8.76164
-8.13379
-7.80698
-7.58367
-7.52075
-7.51757
-7.40031
-7.07813
-6.58963
-6.21834
-5.80199
-4.5977
-2.94894
-1.81993
-0.79632
-0.249111
1.1594
5.13379
6.86805
6.22887
5.99643
4.17311
-2.04331
-4.00353
-5.56087
-9.25857
-13.5504
-16.041
-17.9393
-21.1509
-26.2419
-31.3001
-35.9843
-43.3911
-52.6434
-58.515
-61.5427
-68.1907
-76.9927
-75.5331
-55.7371
-28.2088
-11.1906
-9.07183
-19.2943
-49.5837
-102.465
-146.208
-168.063
-166.826
-141.377
-100.532
-53.851
-18.3539
8.59594
51.1817
64.6583
69.3654
66.0871
57.5036
46.7619
36.1178
25.7348
12.81
1.12365
-10.0038
-17.2963
-20.9774
-24.5512
-25.957
-25.4962
-23.6618
-20.9634
-17.3492
-13.8085
-8.05089
-3.72103
0.48799
4.63211
9.40118
12.9709
16.318
19.3411
21.9362
24.1554
25.6132
26.4693
26.8241
26.2191
26.5367
26.8075
26.8999
26.8025
26.5233
26.0802
25.4925
24.7697
23.9614
23.0802
22.1605
21.2124
20.2975
19.4587
18.713
18.2115
17.6962
17.2277
-0.356286
-0.387159
-0.413357
-0.437808
-0.462868
-0.488672
-0.517272
-0.545317
-0.569748
-0.596574
-0.626008
-0.654134
-0.681985
-0.712461
-0.751356
-0.783935
-0.818069
-0.859683
-0.901628
-0.936844
-0.974885
-1.0078
-1.04099
-1.06368
-1.08386
-1.10261
-1.11385
-1.10264
-1.09749
-1.08557
-1.08095
-1.05195
-1.01839
-1.01265
-0.986787
-1.00838
-1.00278
-0.969753
-0.924061
-0.873325
-0.834944
-0.773464
-0.759232
-0.741116
-0.722992
-0.73339
-0.779668
-0.871978
-0.967095
-1.1626
-1.4295
-1.75455
-2.13027
-2.59514
-3.0752
-3.57356
-4.13768
-4.67561
-5.36156
-5.90188
-6.09805
-7.05516
-7.51839
-7.46436
-8.63429
-8.96315
-9.11429
-9.2254
-9.2689
-9.11031
-8.76533
-8.32916
-7.87313
-7.45641
-7.3114
-7.30254
-7.32043
-7.41502
-7.42376
-7.2426
-6.91297
-6.4478
-5.99403
-5.39732
-4.12806
-2.45177
-0.974779
-0.556091
0.518176
3.08462
8.04181
8.25325
7.15096
6.08709
4.18692
-2.11721
-4.38199
-5.94215
-9.14843
-12.4634
-13.9654
-15.6378
-19.7245
-25.6923
-31.1946
-35.1607
-40.5665
-49.6905
-57.6261
-61.7008
-69.09
-81.9671
-87.4072
-69.5879
-36.0085
-7.92823
4.70174
9.29235
-5.85011
-51.464
-102.213
-136.653
-149.86
-141.441
-112.249
-70.8912
-27.1408
-8.34438
30.3893
57.2041
68.903
71.4449
67.018
58.37
48.4244
38.5122
29.039
17.3471
4.85785
-7.1316
-16.0244
-19.1602
-25.5364
-28.6971
-30.291
-30.5473
-29.9187
-28.3017
-26.3292
-23.9194
-20.5277
-17.7788
-13.9848
-11.525
-8.37109
-4.65725
-1.68481
1.0917
3.6202
5.98755
8.22441
10.6316
12.313
13.6627
14.7915
15.7216
16.4563
17.0123
17.4082
17.6379
17.741
17.737
17.6477
17.4719
17.2705
17.0329
16.8436
16.5877
16.4499
16.3075
-0.368331
-0.39459
-0.419287
-0.442785
-0.465858
-0.48899
-0.512614
-0.53597
-0.558612
-0.581846
-0.606002
-0.630805
-0.656168
-0.683556
-0.713633
-0.743206
-0.773737
-0.806262
-0.838498
-0.867922
-0.895685
-0.919455
-0.941453
-0.955401
-0.963775
-0.971609
-0.969196
-0.960429
-0.935639
-0.930091
-0.93392
-0.893474
-0.874789
-0.915507
-0.922639
-0.915094
-0.896731
-0.872657
-0.836552
-0.803537
-0.777655
-0.747495
-0.736491
-0.730552
-0.735143
-0.757955
-0.80954
-0.892976
-1.0104
-1.18426
-1.37992
-1.662
-1.94918
-2.28458
-2.74038
-3.03006
-3.66794
-4.02075
-4.50275
-5.39224
-5.37468
-5.89002
-5.75633
-7.40747
-7.52073
-7.65066
-7.72035
-7.70352
-7.56674
-7.31416
-7.04279
-6.8358
-6.70325
-6.72328
-6.8902
-7.05333
-7.18301
-7.31422
-7.25223
-7.01683
-6.69534
-6.22007
-5.68404
-4.99929
-3.66028
-1.94004
-0.620893
-0.171195
1.68053
6.85686
9.42089
9.14351
7.61924
5.89862
3.26922
-1.86749
-5.24418
-6.7931
-7.59618
-10.4953
-12.4994
-16.282
-22.0066
-26.7627
-30.181
-31.5832
-34.1246
-42.5426
-50.5079
-54.7978
-62.4649
-80.6059
-95.6182
-83.4174
-47.6265
-5.27037
12.8623
23.1873
18.7996
-0.0581721
-55.0275
-98.2878
-123.579
-129.812
-114.274
-82.7026
-42.3978
-11.0015
3.56439
51.7301
66.3041
74.2694
74.2059
68.0032
58.2202
47.1386
37.1222
24.7437
14.0514
5.54827
-2.48908
-9.72784
-12.4428
-18.0632
-21.5908
-23.5976
-24.5694
-24.7371
-24.6051
-24.3849
-23.3488
-21.9596
-20.7417
-18.9814
-18.092
-15.6861
-14.2103
-12.0171
-9.8659
-7.79667
-5.66101
-3.63381
-1.78168
-0.0613474
1.55209
3.06706
4.48812
5.8227
7.07125
8.27269
9.5069
10.5718
11.4997
12.2679
12.9135
13.412
13.8529
14.0936
14.4538
14.2918
-0.374262
-0.396993
-0.419208
-0.440753
-0.461854
-0.482708
-0.503599
-0.524547
-0.54554
-0.56695
-0.589001
-0.611797
-0.635456
-0.660455
-0.686705
-0.713392
-0.740369
-0.767348
-0.793236
-0.816879
-0.837614
-0.854626
-0.867862
-0.875143
-0.877345
-0.874834
-0.865556
-0.853765
-0.838397
-0.830817
-0.82586
-0.836362
-0.847239
-0.844311
-0.836545
-0.794423
-0.758198
-0.729998
-0.700486
-0.671679
-0.645421
-0.620612
-0.603365
-0.596423
-0.603049
-0.626365
-0.671337
-0.74601
-0.85171
-0.99251
-1.18169
-1.3984
-1.66246
-1.98132
-2.29895
-2.6818
-3.11687
-3.47185
-4.02077
-4.61947
-4.83588
-5.1125
-5.92055
-6.0234
-6.09999
-6.15263
-6.10742
-6.0374
-5.90488
-5.79998
-5.80292
-5.93428
-6.13763
-6.41658
-6.70938
-6.88943
-7.03117
-7.11009
-6.95554
-6.73327
-6.44714
-5.91425
-5.36601
-4.67306
-3.08413
-1.25054
-0.718248
0.494649
3.76669
10.0049
10.4829
9.42604
7.47357
5.11948
2.0635
-2.44359
-5.11585
-6.24037
-7.82808
-13.1752
-15.12
-19.9411
-24.0726
-27.8132
-28.6159
-28.3327
-27.853
-32.0982
-40.8223
-46.8745
-54.4101
-71.6758
-93.6775
-92.1783
-60.1033
-9.76913
6.43854
39.9322
35.0661
25.7763
4.97434
-58.8749
-91.4957
-108.439
-106.788
-86.8524
-52.6947
-16.0064
-1.59607
30.1608
58.5282
72.3011
76.2277
72.4645
63.3961
51.3215
37.7515
26.0828
17.439
10.7605
4.12746
-1.75223
-6.7841
-8.28982
-13.4212
-15.6675
-17.3348
-18.4298
-19.0346
-19.0851
-18.6813
-17.9446
-16.9993
-15.9551
-14.9923
-13.8593
-13.1044
-11.2619
-9.62676
-8.31495
-7.03563
-5.72092
-4.37465
-3.01526
-1.66067
-0.322246
0.99504
2.28763
3.56059
4.73712
5.71682
6.70771
7.67045
8.56702
9.41298
10.144
10.8315
11.2925
11.8993
11.8033
-0.373593
-0.393083
-0.412888
-0.432484
-0.451736
-0.471023
-0.490539
-0.510406
-0.530598
-0.551177
-0.572326
-0.594197
-0.616807
-0.640259
-0.66441
-0.688777
-0.712812
-0.7359
-0.757375
-0.776456
-0.792377
-0.804182
-0.811684
-0.814281
-0.811734
-0.804423
-0.792883
-0.784355
-0.780348
-0.796416
-0.795524
-0.793525
-0.787711
-0.742517
-0.707571
-0.676635
-0.64844
-0.621206
-0.593687
-0.566476
-0.540657
-0.517188
-0.499318
-0.491272
-0.495241
-0.514567
-0.553921
-0.618702
-0.712297
-0.835396
-1.00598
-1.18255
-1.44289
-1.70092
-1.97222
-2.40209
-2.6299
-3.12994
-3.68435
-3.62163
-4.14402
-4.32861
-4.41913
-4.49704
-4.51093
-4.51994
-4.52697
-4.57922
-4.64641
-4.8971
-5.26453
-5.64431
-5.99336
-6.32109
-6.55582
-6.67799
-6.79768
-6.80437
-6.63062
-6.47758
-6.17935
-5.59981
-5.1045
-4.30229
-2.62448
-1.20208
-0.518249
1.41499
7.66367
10.9975
10.6949
9.12521
6.72094
3.77824
0.588703
-3.36935
-5.94119
-9.75862
-7.80926
-16.6991
-17.428
-21.6952
-31.4069
-34.9341
-26.6125
-16.7631
-10.4278
-10.0209
-20.461
-27.7166
-37.9284
-59.4921
-86.1258
-93.4442
-68.3996
-22.3353
7.73184
38.7177
55.8173
41.9462
28.9357
6.41978
-60.2824
-83.0223
-92.764
-84.4346
-60.2795
-27.2924
-3.68612
7.67364
49.127
64.6231
71.4333
69.9109
62.1495
50.408
37.3442
26.5238
18.3286
12.0238
6.84545
2.60234
-0.883146
-4.13428
-5.87968
-8.9678
-10.5854
-11.9823
-12.8762
-13.2801
-13.2332
-12.9125
-12.4395
-11.899
-11.3535
-10.7393
-9.89585
-9.32803
-7.59043
-6.76462
-6.07426
-5.28366
-4.38935
-3.42637
-2.4189
-1.38933
-0.33841
0.719829
1.79459
2.81156
3.61957
4.44536
5.27133
6.07138
6.85514
7.56384
8.25815
8.77947
9.40067
9.63062
-0.368324
-0.385874
-0.40274
-0.420061
-0.438328
-0.457479
-0.476424
-0.495545
-0.515525
-0.535912
-0.55662
-0.577751
-0.599675
-0.622302
-0.645289
-0.667997
-0.689645
-0.709731
-0.72798
-0.744159
-0.757406
-0.766411
-0.770803
-0.771761
-0.76842
-0.76143
-0.757427
-0.766097
-0.76414
-0.763676
-0.759354
-0.721885
-0.690535
-0.662101
-0.635946
-0.611068
-0.586761
-0.562365
-0.537578
-0.513255
-0.490409
-0.470307
-0.454676
-0.446911
-0.449457
-0.465478
-0.500912
-0.554757
-0.63887
-0.748841
-0.886532
-1.06794
-1.26069
-1.51898
-1.76052
-2.12083
-2.47591
-2.82767
-2.64863
-3.07383
-3.23216
-3.35897
-3.45286
-3.5671
-3.70363
-3.83549
-4.03552
-4.29097
-4.5526
-4.94628
-5.33655
-5.63626
-5.90885
-6.15231
-6.2979
-6.41468
-6.53491
-6.49816
-6.36569
-6.27229
-5.8731
-5.32166
-4.93858
-3.83514
-2.00482
-1.48009
-0.0776397
2.38912
10.6415
10.7465
9.91434
8.32488
6.22062
1.24242
-2.10573
-4.35738
-8.61906
-12.6091
-10.1979
-22.718
-31.3737
-41.8389
-54.5028
-48.3983
-18.3341
11.9626
17.761
33.8344
29.625
-2.89835
-12.1264
-12.4704
-74.0198
-89.5511
-73.6916
-32.5731
6.45592
28.4681
66.168
66.5121
43.4427
27.954
-2.95721
-57.5806
-75.8862
-78.0314
-64.2899
-38.1985
-9.90866
0.846646
25.8027
50.0082
59.8403
60.5299
53.7389
43.9853
34.2582
26.2002
20.1033
15.6021
12.049
9.11409
6.52121
4.16983
1.85863
-0.589182
-1.71505
-3.8657
-5.12324
-6.02339
-6.70742
-7.01836
-7.08324
-7.08091
-7.10154
-7.04407
-6.91057
-6.50228
-5.73081
-4.88916
-4.48766
-3.9874
-3.40478
-2.76245
-2.06462
-1.3302
-0.55886
0.223125
1.11656
2.00206
2.88805
3.69183
4.45663
5.19257
5.89209
6.54836
7.1815
7.72914
8.28776
8.7357
-0.361601
-0.377964
-0.392719
-0.40721
-0.422429
-0.439309
-0.459382
-0.479887
-0.50091
-0.520452
-0.539491
-0.559182
-0.579559
-0.60053
-0.622167
-0.643832
-0.663821
-0.68115
-0.697269
-0.713505
-0.728533
-0.738042
-0.736269
-0.738719
-0.742073
-0.743077
-0.749851
-0.742863
-0.739358
-0.712087
-0.690409
-0.66814
-0.646537
-0.626205
-0.606165
-0.586409
-0.566673
-0.546725
-0.5267
-0.507138
-0.488711
-0.472649
-0.459882
-0.453536
-0.45584
-0.46941
-0.499867
-0.546455
-0.616631
-0.714928
-0.82813
-0.99323
-1.14973
-1.38701
-1.60224
-1.87201
-2.02814
-2.1022
-2.39517
-2.52023
-2.62555
-2.8003
-2.94883
-3.11131
-3.33517
-3.50211
-3.78904
-4.04266
-4.32416
-4.68627
-5.02486
-5.26687
-5.54562
-5.80224
-5.95143
-6.14308
-6.24412
-6.19123
-6.12253
-6.01603
-5.52278
-5.11822
-4.79702
-3.47538
-1.94113
-1.38367
0.448504
6.25258
9.27299
9.7378
8.96809
6.73026
3.08804
-1.50564
-7.22705
-7.81084
-7.23104
-22.1057
-24.7041
-52.9112
-69.2862
-80.1668
-87.0929
-53.9062
16.4964
36.7259
52.4741
94.6841
104.418
80.4867
34.6433
-9.1654
-14.8096
-81.2865
-72.8448
-37.8415
0.358542
14.1323
72.6729
79.2162
66.7487
40.0525
25.4653
-20.9299
-57.4945
-70.4169
-66.4776
-49.1327
-25.9502
-4.3809
2.57143
32.9579
43.0175
44.1659
41.1058
35.8865
30.4468
25.8198
22.1885
19.3084
16.8584
14.629
12.4682
10.3503
8.38493
6.56948
5.13738
3.40455
1.95748
0.744689
0.0510949
-0.564016
-0.863532
-1.08572
-1.28869
-1.41418
-1.42678
-1.37182
-1.10155
-0.777671
-0.519124
-0.23513
0.082289
0.421672
0.833609
1.29584
1.79362
2.33704
2.74823
3.26952
3.8489
4.46345
5.08129
5.7121
6.29945
6.87853
7.42921
7.93853
8.44579
9.00054
-0.338109
-0.353921
-0.370905
-0.38572
-0.401235
-0.416919
-0.435021
-0.455058
-0.474967
-0.493452
-0.5116
-0.529909
-0.548526
-0.568334
-0.588865
-0.610021
-0.626547
-0.641687
-0.657303
-0.673516
-0.72138
-0.738384
-0.678363
-0.687639
-0.727287
-0.734131
-0.734754
-0.719436
-0.708952
-0.697479
-0.68499
-0.671727
-0.658101
-0.644362
-0.630442
-0.616468
-0.60244
-0.588277
-0.574219
-0.559141
-0.545115
-0.532672
-0.522524
-0.517123
-0.519378
-0.530402
-0.556875
-0.595099
-0.656033
-0.733196
-0.837666
-0.962872
-1.10544
-1.28727
-1.42653
-1.52155
-1.69886
-1.87161
-1.98534
-2.16864
-2.28154
-2.48632
-2.66169
-2.83771
-3.10967
-3.28478
-3.60546
-3.84737
-4.19159
-4.48181
-4.79937
-5.02553
-5.2971
-5.53036
-5.64233
-5.86002
-5.88252
-5.83654
-5.86016
-5.65994
-5.1996
-4.99132
-4.43685
-2.77231
-2.12774
-0.62315
1.66466
7.5187
7.40893
8.72573
7.2958
3.00167
-2.94505
-4.45823
-6.84675
-20.3948
-17.4367
-47.8245
-82.2318
-115.08
-130.015
-127.083
-104.03
-31.118
50.7678
64.4562
95.5758
153.659
184.438
178.408
120.702
57.5714
-6.01174
-39.6359
-53.9046
-35.3635
-1.22676
10.1641
65.8764
84.6521
79.7198
59.9147
30.1825
20.6622
-46.8324
-64.5108
-68.7932
-59.6824
-41.9139
-21.7782
-4.59211
4.45181
23.1704
27.2848
28.5726
28.6334
28.1201
27.3225
26.248
24.8676
23.1838
21.2019
19.0677
16.8824
14.7524
12.6717
10.4282
8.57911
7.06151
5.8783
4.94543
4.31741
3.95452
3.70957
3.47706
3.31094
3.21979
3.16093
3.18209
3.19369
3.30673
3.47788
3.66694
3.80739
4.01626
4.32661
4.65796
4.98863
5.45825
5.89616
6.34823
6.82096
7.29695
7.80802
8.21454
8.64981
9.07341
9.40932
9.96709
10.2693
-0.30231
-0.319446
-0.338193
-0.357459
-0.378948
-0.394994
-0.415617
-0.435538
-0.454787
-0.472697
-0.485164
-0.497538
-0.522027
-0.552411
-0.577615
-0.583606
-0.576028
-0.581866
-0.607596
-0.641441
-0.67468
-0.696428
-0.712586
-0.727656
-0.738815
-0.745767
-0.749433
-0.749611
-0.747695
-0.74429
-0.739485
-0.733468
-0.726573
-0.719064
-0.71103
-0.702648
-0.693962
-0.684924
-0.675429
-0.666887
-0.658134
-0.650496
-0.645199
-0.641955
-0.64885
-0.659369
-0.683039
-0.709465
-0.759851
-0.807686
-0.894493
-0.973836
-1.09178
-1.19031
-1.31486
-1.432
-1.56469
-1.69255
-1.81187
-1.99496
-2.12607
-2.32652
-2.52266
-2.70449
-2.96489
-3.1782
-3.44885
-3.71503
-3.97205
-4.19831
-4.44231
-4.64699
-4.86436
-5.08135
-5.19368
-5.44076
-5.43305
-5.48469
-5.56463
-5.23841
-5.00238
-4.84833
-3.38079
-2.7744
-1.84087
-0.459689
4.94079
5.95482
5.49945
3.42373
-0.673948
-3.16462
-5.97072
-10.49
-18.485
-48.5537
-72.4274
-124.197
-175.267
-192.056
-179.904
-138.826
-63.8155
22.7581
50.7327
80.1892
149.061
188.133
225.233
243.659
218.699
139.855
55.864
-1.70111
-41.0017
-24.0874
2.1553
10.7175
64.2193
86.0928
83.3606
63.3313
32.6037
20.2749
-25.6046
-61.1123
-72.715
-69.9186
-56.8218
-39.1487
-23.1381
-6.57653
-0.92168
12.1093
17.8389
24.105
28.5197
31.0579
31.9674
31.4591
30.0441
27.9075
25.4979
23.0048
20.5718
18.2662
16.1166
14.1818
12.5401
11.2539
10.2826
9.57402
9.13909
8.95525
8.76933
8.59967
8.55165
8.6127
8.36865
8.01628
8.03596
8.17537
8.3602
8.41396
8.18249
8.49998
8.7541
8.87991
9.10819
9.33984
9.64881
9.8754
10.1611
10.5503
10.672
10.7921
10.9557
11.1492
11.235
11.3687
-0.250029
-0.273497
-0.297032
-0.311595
-0.323774
-0.338266
-0.371944
-0.41295
-0.454317
-0.457024
-0.435471
-0.428928
-0.458765
-0.496387
-0.526906
-0.553454
-0.574794
-0.593319
-0.611873
-0.629351
-0.649615
-0.669784
-0.687467
-0.704422
-0.719174
-0.731047
-0.741313
-0.749059
-0.754887
-0.759146
-0.762078
-0.763845
-0.764593
-0.764479
-0.763627
-0.762161
-0.760198
-0.757812
-0.755119
-0.752272
-0.749527
-0.747422
-0.746132
-0.749294
-0.748779
-0.753701
-0.76911
-0.787674
-0.823487
-0.862228
-0.923906
-0.998246
-1.07357
-1.21575
-1.30686
-1.38624
-1.48998
-1.62451
-1.74993
-1.92792
-2.0686
-2.2518
-2.44695
-2.61837
-2.84705
-3.0572
-3.26232
-3.43825
-3.64283
-3.82223
-4.01137
-4.24247
-4.38683
-4.62964
-4.75165
-4.95992
-4.99989
-5.07195
-5.12556
-4.79984
-4.78986
-3.71175
-3.33806
-2.16141
-0.55023
1.79951
3.26931
-0.0523525
-2.48819
-2.84129
-6.35013
-11.2974
-21.3637
-40.0769
-70.7671
-123.627
-179.545
-243.25
-253.141
-213.408
-142.811
-65.47
5.29551
31.3547
60.2968
111.492
156.173
194.046
233.579
265.295
259.328
200.034
123.372
51.4264
1.20787
-6.85862
8.36927
10.4858
69.6358
85.7093
81.6445
59.5934
33.117
16.3058
-25.8274
-64.1747
-77.8118
-77.6711
-67.9243
-52.9413
-39.2728
-26.1392
-11.9459
3.21995
8.8148
22.9578
31.692
36.1649
38.0276
37.7612
36.1112
33.7201
30.8966
28.115
25.5328
23.1538
20.94
18.8895
17.0567
15.5588
14.5641
13.6728
13.1112
12.9323
12.8079
12.6259
12.4521
12.2694
12.0731
11.871
11.7592
11.6869
11.6266
11.5241
11.469
11.4599
11.4782
11.4746
11.5175
11.5541
11.6031
11.6341
11.6441
11.6379
11.5216
11.3818
11.2602
11.0767
10.9428
10.4904
-0.16648
-0.184942
-0.203397
-0.217032
-0.232829
-0.259335
-0.27498
-0.278752
-0.302874
-0.323027
-0.319312
-0.327976
-0.356441
-0.386966
-0.413989
-0.438148
-0.46044
-0.482081
-0.504239
-0.527404
-0.549799
-0.571482
-0.592939
-0.613404
-0.632649
-0.65084
-0.667623
-0.683161
-0.69738
-0.71039
-0.722302
-0.733165
-0.743006
-0.751873
-0.759858
-0.767083
-0.773648
-0.779638
-0.785106
-0.790097
-0.794898
-0.799403
-0.805066
-0.810216
-0.819433
-0.832137
-0.848758
-0.87016
-0.896773
-0.933
-0.977156
-1.03169
-1.10471
-1.18016
-1.28379
-1.39992
-1.51608
-1.67264
-1.8319
-1.95336
-2.09666
-2.23653
-2.37474
-2.5285
-2.65552
-2.79293
-2.92613
-3.03359
-3.18956
-3.30561
-3.44114
-3.66144
-3.72268
-3.99122
-4.14058
-4.23427
-4.52791
-4.24498
-4.63255
-4.1954
-3.88383
-2.51666
-2.89103
-1.91644
2.69337
-2.80987
-4.57401
-5.6945
-8.78198
-10.1684
-27.6868
-35.5489
-80.1527
-110.449
-179.444
-263.308
-295.45
-228.706
-157.884
-103.548
-51.7944
0.925575
21.3239
41.1014
78.253
104.73
139.32
178.999
217.999
246.487
252.326
219.433
158.53
94.1923
48.2392
19.8722
13.4126
38.5249
68.1775
78.3015
68.682
45.7542
17.6043
8.36404
-37.6042
-73.7486
-87.7629
-89.3017
-82.2101
-71.4933
-56.7395
-38.5136
-19.275
-0.764502
13.7628
21.6223
36.1675
40.4147
41.9695
41.5414
39.5203
36.7431
33.7284
30.8656
28.346
26.055
23.8557
21.7324
19.7998
17.6339
16.3848
15.4465
15.1836
14.9286
14.6327
14.3145
14.001
13.6971
13.4055
13.1181
12.8595
12.6121
12.3812
12.1436
11.9317
11.7252
11.5664
11.3611
11.2011
11.0051
10.8107
10.5694
10.304
9.96457
9.56725
9.07806
8.65393
8.05077
7.66687
6.62392
-0.0791525
-0.0917526
-0.105501
-0.120205
-0.136713
-0.15437
-0.170314
-0.18641
-0.203091
-0.219737
-0.238319
-0.25497
-0.269522
-0.283837
-0.29737
-0.311698
-0.332341
-0.354372
-0.381734
-0.407382
-0.430512
-0.452726
-0.475539
-0.498948
-0.52248
-0.545996
-0.569358
-0.592257
-0.614529
-0.63623
-0.657453
-0.678164
-0.698291
-0.717838
-0.736891
-0.755549
-0.773872
-0.791861
-0.809496
-0.826744
-0.843571
-0.859974
-0.876032
-0.891858
-0.907663
-0.923874
-0.940945
-0.959197
-0.980423
-1.00432
-1.0338
-1.07123
-1.11684
-1.18004
-1.25343
-1.34436
-1.44907
-1.55318
-1.67262
-1.77649
-1.88811
-1.99143
-2.07067
-2.16598
-2.21817
-2.28259
-2.33493
-2.37148
-2.43894
-2.48125
-2.58328
-2.70536
-2.81832
-2.97909
-3.24096
-3.2813
-3.48631
-4.0169
-2.18796
-4.23469
-1.99919
-1.20328
-4.82746
-5.60056
-7.35007
-9.26216
-9.69343
-11.941
-32.044
-34.6475
-105.471
-102.526
-192.36
-294.805
-277.335
-201.419
-149.452
-114.408
-66.298
-31.3674
-6.43234
18.7329
29.369
59.9646
76.3699
94.8365
124.947
161.279
189.815
209.903
221.608
204.563
163.091
111.959
67.8559
42.5446
38.4267
50.4146
58.495
52.8874
32.3169
4.61519
-5.46871
-15.3569
-72.7879
-89.8298
-100.067
-101.612
-94.6162
-79.6963
-60.5237
-38.2711
-14.453
5.31372
15.9325
27.4432
37.2491
41.2021
41.8112
40.4744
38.0639
35.1217
32.1013
29.3303
26.9932
24.9156
22.9346
20.9493
18.1231
16.7302
14.4252
14.3175
13.9714
13.5551
13.1041
12.6424
12.188
11.7442
11.308
10.8716
10.4499
10.0332
9.63017
9.22971
8.85171
8.53126
8.23079
7.82407
7.45507
7.07077
6.67249
6.23486
5.77784
5.25078
4.71586
4.03534
3.43867
2.65265
2.16143
0.852795
4.69304e-05
-0.00784146
-0.0169142
-0.0274187
-0.0394043
-0.0531299
-0.0683933
-0.0854687
-0.104036
-0.124003
-0.145616
-0.16667
-0.18835
-0.207358
-0.227426
-0.247368
-0.266929
-0.290308
-0.318714
-0.341821
-0.339067
-0.35551
-0.386036
-0.418394
-0.448605
-0.479261
-0.50944
-0.539227
-0.569431
-0.600158
-0.631695
-0.663416
-0.694781
-0.725799
-0.75665
-0.787386
-0.817914
-0.848057
-0.877619
-0.906331
-0.933911
-0.959976
-0.984089
-1.00583
-1.02455
-1.03997
-1.05155
-1.05912
-1.06363
-1.06458
-1.0655
-1.07125
-1.08512
-1.12056
-1.17348
-1.2437
-1.3292
-1.40142
-1.48874
-1.53737
-1.58935
-1.61574
-1.59609
-1.60265
-1.53119
-1.48178
-1.39574
-1.30741
-1.21022
-1.19872
-1.20284
-1.23276
-1.44561
-1.53988
-1.91854
-1.56715
-1.92839
-2.36115
-3.32948
-4.04378
-6.83003
-5.91388
-10.903
-9.20498
-11.6626
-24.8684
-26.9426
-57.8936
-102.204
-160.689
-227.615
-284.153
-204.313
-145.261
-97.4722
-61.624
-59.6724
-55.7408
-29.1166
6.7717
19.8102
56.9544
72.3256
75.1318
78.6367
87.9192
103.363
125.425
149.501
159.874
160.599
144.034
110.454
70.9757
39.1355
23.8736
19.4726
7.57698
-10.1137
-20.3897
-30.0244
-33.369
-37.1309
-57.7746
-75.5513
-86.9128
-91.5243
-88.7942
-78.6517
-62.1446
-42.2481
-22.4058
-2.67832
10.9085
16.196
31.2536
34.2918
34.9803
33.763
31.401
28.45
25.4837
22.7887
20.405
18.2581
16.3487
14.6109
12.9244
10.8775
9.89756
8.63335
8.09904
7.96721
7.63352
7.22346
6.78027
6.32615
5.85346
5.32887
4.82772
4.35104
3.89169
3.45293
3.02559
2.60281
2.07696
1.73427
1.28326
0.735295
0.458701
0.192376
-0.168698
-0.570829
-0.913657
-1.33679
-1.69756
-2.01791
-2.25589
-2.50539
-2.74681
0.0522666
0.0476922
0.0419674
0.0349616
0.0265437
0.0165981
0.00500888
-0.0083225
-0.0235108
-0.0406565
-0.0598531
-0.0811556
-0.104514
-0.129696
-0.156406
-0.184067
-0.211813
-0.238464
-0.25911
-0.282882
-0.305737
-0.329257
-0.346561
-0.366709
-0.389497
-0.433491
-0.470542
-0.499
-0.542579
-0.582212
-0.625468
-0.666834
-0.706484
-0.745937
-0.785733
-0.826302
-0.867438
-0.90811
-0.947602
-0.985369
-1.02087
-1.05316
-1.08084
-1.10306
-1.11687
-1.12217
-1.11507
-1.09544
-1.06128
-1.00845
-0.945702
-0.8811
-0.831592
-0.832899
-0.871019
-0.925857
-1.00771
-1.05915
-1.11786
-1.10284
-1.10604
-1.03995
-0.87138
-0.856772
-0.545641
-0.376994
-0.342604
0.202445
0.351558
0.34753
0.825519
0.830645
-0.0054784
0.0850278
-1.30508
-3.03347
-2.56524
-7.99792
-6.00503
-9.27102
-11.8036
-9.00207
-27.0502
-24.9065
-44.1358
-80.2067
-104.541
-190.765
-296.101
-212.778
-98.418
-27.0559
-12.6943
-11.9352
-26.6337
-30.6985
-9.74114
9.40901
20.1006
58.8264
61.651
57.9986
53.4732
49.9667
48.2689
49.0381
54.4795
61.7993
67.7592
80.1414
65.6648
37.0416
11.9919
-8.87242
-22.2469
-30.0567
-35.1944
-36.6378
-32.8197
-32.0558
-31.5945
-31.4962
-37.3858
-49.4456
-57.9897
-61.5451
-59.6409
-52.6857
-41.4326
-26.3629
-9.89664
3.02863
8.60873
22.2141
24.8985
26.1611
25.0173
22.4229
19.086
15.431
12.3102
9.62203
7.39568
5.58172
4.09852
2.88068
1.83333
0.957721
0.306937
-0.0860918
-0.308894
-0.33274
-0.361162
-0.446637
-0.587688
-0.770038
-0.982404
-1.16841
-1.31088
-1.48439
-1.67378
-1.87303
-2.08274
-2.29495
-2.52295
-2.7586
-2.96995
-3.21706
-3.4187
-3.60519
-3.78389
-3.9619
-4.14857
-4.27643
-4.42532
-4.43577
-4.49888
-4.4405
-4.43584
-4.45827
0.0788577
0.07674
0.0736325
0.0694131
0.0639587
0.0571382
0.0488172
0.0388578
0.027118
0.0134555
-0.0022688
-0.0201804
-0.0403742
-0.0628898
-0.0876899
-0.114646
-0.143605
-0.174435
-0.206849
-0.240664
-0.274183
-0.304817
-0.319091
-0.339878
-0.366209
-0.394869
-0.415593
-0.43874
-0.46583
-0.512536
-0.593594
-0.632816
-0.669079
-0.717472
-0.763342
-0.810719
-0.863531
-0.91157
-0.955542
-0.997976
-1.03682
-1.07102
-1.09664
-1.11525
-1.11247
-1.10151
-1.05299
-0.977938
-0.876348
-0.713319
-0.5243
-0.317328
-0.277143
-0.334096
-0.397358
-0.435771
-0.614486
-0.720674
-0.730572
-0.756774
-0.607578
-0.540604
-0.297415
-0.0289951
0.206115
0.579485
1.24996
1.59577
1.28808
1.53528
0.873258
-0.786976
-1.85773
-2.21348
-3.73546
-5.01743
-8.69459
-11.0879
-13.6887
-25.4411
-30.344
-31.9589
-67.02
-77.4083
-118.081
-213.73
-237.725
-116.783
-6.95391
40.4768
65.6023
80.6276
51.6132
19.1585
-10.9907
-12.7526
-4.94524
4.39054
19.997
36.5838
41.2779
41.6694
38.1148
32.2427
25.8852
17.1956
4.13295
-3.42966
-5.59467
-11.3721
-19.7889
-22.256
-29.3789
-33.5375
-33.0561
-29.3961
-24.6941
-19.8379
-15.7609
-13.7326
-12.7288
-12.7582
-15.1867
-26.3319
-28.3761
-27.69
-22.924
-13.902
-4.38968
0.285915
13.86
19.683
23.8302
25.5826
24.6717
22.0112
18.4058
14.4794
10.6503
7.33689
4.37201
1.91044
-0.0549261
-1.59676
-2.7842
-3.66318
-4.28137
-4.65068
-4.795
-4.77313
-4.65189
-4.50732
-4.39635
-4.33622
-4.3294
-4.36415
-4.42885
-4.5536
-4.66511
-4.77295
-4.86946
-4.95244
-5.03831
-5.11219
-5.20367
-5.26615
-5.32821
-5.37967
-5.39869
-5.42075
-5.41783
-5.42625
-5.40599
-5.32427
-5.23021
-4.9707
-4.81911
-4.47893
-4.32157
-3.89776
0.0900004
0.0897436
0.0887076
0.086789
0.0838819
0.079869
0.0746243
0.0680144
0.0598987
0.0501306
0.0385595
0.0250343
0.00941185
-0.00843206
-0.0285921
-0.0511325
-0.0761053
-0.103583
-0.133639
-0.166173
-0.200674
-0.236308
-0.271763
-0.308463
-0.344966
-0.367963
-0.37155
-0.390828
-0.421444
-0.452467
-0.482421
-0.512723
-0.543499
-0.573541
-0.63791
-0.698117
-0.792345
-0.846701
-0.862495
-0.916256
-0.954568
-0.987426
-1.00481
-1.02029
-0.982498
-0.980309
-0.797658
-0.692607
-0.491181
-0.207586
0.0350195
0.239627
0.374344
0.361207
0.0742354
-0.2555
-0.400386
-0.554883
-0.631611
-0.449772
-0.373888
-0.0734986
0.11643
1.11859
0.805341
1.17317
0.354355
-0.092933
-0.639573
-0.892004
-0.785146
-1.92811
-7.49183
-8.50301
-10.1039
-20.9956
-22.6947
-25.6023
-49.1478
-42.9994
-59.8461
-92.379
-101.029
-150.38
-97.5161
7.56897
83.8917
111.078
166.674
211.248
136.117
54.8953
9.28409
-30.2448
-34.0179
-26.195
-14.1801
-2.8302
5.92934
15.709
18.4097
18.4088
15.175
9.43155
-0.616557
-20.1769
-37.8852
-49.4663
-54.653
-51.9283
-43.2866
-38.4697
-33.2384
-26.0266
-17.4136
-7.04192
0.78586
6.78149
10.4349
11.865
12.0403
11.2424
7.30404
3.68374
3.07372
4.92432
8.6031
12.3043
18.125
24.4645
29.6726
31.2605
30.7159
28.2413
24.31
19.592
14.6989
10.0569
5.93179
2.44706
-0.38021
-2.58565
-4.23875
-5.42527
-6.21749
-6.67496
-6.85789
-6.82137
-6.62892
-6.34932
-6.04489
-5.76276
-5.52719
-5.3454
-5.21578
-5.1262
-5.06855
-5.02983
-5.00726
-4.98516
-4.96782
-4.94536
-4.93849
-4.9209
-4.92588
-4.89003
-4.86615
-4.80845
-4.72203
-4.61927
-4.49632
-4.40116
-4.25313
-4.05459
-3.83278
-3.44554
-3.20664
-2.75224
-2.54817
-1.94403
0.0906621
0.0917589
0.0923044
0.0922156
0.0914097
0.0897932
0.0872644
0.0837132
0.0790221
0.0730669
0.0657154
0.0568309
0.0462731
0.0339011
0.0195854
0.00319865
-0.0153749
-0.0362648
-0.0596082
-0.085469
-0.113806
-0.144412
-0.177233
-0.21245
-0.249751
-0.285268
-0.318765
-0.354029
-0.39669
-0.398628
-0.391567
-0.408271
-0.435733
-0.477398
-0.509164
-0.541511
-0.580366
-0.615164
-0.650523
-0.676832
-0.732132
-0.783109
-0.811641
-0.822298
-0.801004
-0.741665
-0.638368
-0.413405
-0.300445
-0.0513331
0.474124
0.888686
1.01374
0.643671
0.490168
-0.0481649
-0.140098
-0.466385
-0.707214
0.269246
-0.0645113
0.259102
-0.517813
-1.07456
-2.60615
-0.718571
-1.52581
-5.70356
-6.10883
-11.866
-16.4599
-10.7912
-38.5828
-33.0514
-45.9706
-65.676
-39.7258
-77.9469
-67.3932
-56.7752
-51.2787
-8.10054
93.9002
117.583
151.382
181.729
332.122
314.938
213.996
109.256
28.6864
-3.62379
-41.5456
-43.3436
-40.0589
-33.256
-25.2665
-17.5454
-10.8493
-6.05341
-3.58919
-3.66096
-6.94904
-11.829
-28.3242
-45.968
-59.67
-68.2138
-68.6176
-60.3271
-44.6968
-31.3891
-17.9088
-4.5735
6.29447
18.6468
25.4541
30.1338
32.4568
32.5552
30.5284
26.2499
23.8303
22.8179
23.7587
26.346
30.292
35.4224
38.6774
40.1814
39.6151
37.1135
33.34
28.4647
22.9542
17.3515
12.0927
7.4483
3.54545
0.43179
-1.97277
-3.74625
-4.97886
-5.76121
-6.17374
-6.28989
-6.18193
-5.91812
-5.56426
-5.17786
-4.80275
-4.46601
-4.18029
-3.94735
-3.76224
-3.61293
-3.49192
-3.38527
-3.29143
-3.2003
-3.12247
-3.04653
-2.99679
-2.9372
-2.90501
-2.82583
-2.77304
-2.66858
-2.65028
-2.64587
-2.58639
-2.50431
-2.34889
-2.13878
-1.91088
-1.50306
-1.27765
-0.802013
-0.602231
0.0297452
0.0850569
0.0871443
0.0889112
0.0902958
0.0912415
0.0916822
0.0915479
0.0907601
0.0892308
0.0868758
0.0835882
0.0792715
0.0738226
0.0671036
0.0590455
0.0494791
0.0383291
0.025478
0.0107062
-0.00589028
-0.0247177
-0.045539
-0.0684527
-0.0937185
-0.12104
-0.149978
-0.179756
-0.211312
-0.249006
-0.280142
-0.305686
-0.333364
-0.359091
-0.419731
-0.397335
-0.381157
-0.385434
-0.415973
-0.441749
-0.502475
-0.51359
-0.551311
-0.562904
-0.56547
-0.564583
-0.463677
-0.509715
-0.304517
-0.0621149
0.0372588
1.03915
1.8199
1.99755
1.56902
0.959219
-0.105071
-0.418156
-0.793329
-0.986009
-2.37882
-1.89258
-3.17157
-2.87287
-0.68683
-14.1206
-10.2754
-17.0097
-26.2101
-40.601
-51.0652
-74.0439
-73.9891
-100.007
-112.933
-96.184
-96.9121
-44.1189
12.1371
63.5038
141.943
151.949
172.385
215.715
339.702
393.066
351.192
266.957
164.053
75.4527
13.5967
-20.5739
-41.6494
-47.316
-47.1915
-44.6064
-40.9264
-36.3464
-31.5858
-27.1743
-23.6866
-21.7715
-21.6878
-22.2193
-31.5056
-45.9081
-59.5665
-69.3108
-72.2545
-68.0605
-56.375
-37.799
-22.5497
-6.43063
7.92217
21.7598
32.2353
39.4079
43.8497
45.7144
45.5853
44.4652
43.5848
43.4656
43.3985
44.0958
45.7152
47.5143
48.1123
47.8572
46.224
42.9593
38.3607
32.8429
26.8313
20.8023
15.1726
10.2162
6.06131
2.73843
0.0857457
-1.87629
-3.24296
-4.11231
-4.57925
-4.73042
-4.64157
-4.38601
-4.0296
-3.62733
-3.22255
-2.84464
-2.50975
-2.22494
-1.98871
-1.79441
-1.63065
-1.49043
-1.36168
-1.24626
-1.13591
-1.04441
-0.959061
-0.904701
-0.837997
-0.800453
-0.711709
-0.661663
-0.552081
-0.514063
-0.468875
-0.41865
-0.351754
-0.224479
-0.0465373
0.131681
0.49995
0.654749
1.08198
1.24047
1.82014
0.0771164
0.080075
0.0829429
0.0856734
0.0882537
0.0906289
0.0927834
0.0946783
0.0962097
0.0974218
0.0981361
0.0983549
0.0981159
0.0969976
0.0955196
0.0929354
0.0896198
0.0856288
0.0796609
0.0742935
0.0656422
0.056947
0.0477738
0.0353227
0.0253132
0.00975512
-0.00326315
-0.0203865
-0.0409207
-0.0588743
-0.0831105
-0.101314
-0.126239
-0.157469
-0.183772
-0.207781
-0.209466
-0.266106
-0.247137
-0.361647
-0.283199
-0.382158
-0.316388
-0.295189
-0.320312
-0.0767982
-0.580474
-0.0982024
-0.293269
0.187389
0.855094
1.59485
-0.0372814
1.48734
0.385692
0.287716
-3.92601
-2.68796
-3.49479
-6.58852
-7.48046
-13.6252
-16.2372
-28.034
-44.6975
-57.0616
-84.9823
-92.2457
-134.038
-171.092
-149.998
-162.527
-111.672
-46.7659
8.03544
30.4913
102.093
125.126
156.797
211.956
313.275
350.689
352.03
330.65
271.426
192.639
115.554
49.5497
7.49973
-25.1632
-40.6567
-47.7346
-50.7564
-51.2727
-49.8975
-47.2694
-45.0672
-42.4102
-39.5345
-36.7568
-34.2381
-33.1512
-35.8598
-44.2395
-54.216
-62.6318
-67.4003
-66.3228
-58.5747
-44.3316
-25.1147
-6.08265
10.0008
23.1597
38.2944
47.2834
53.397
56.424
57.1174
56.5202
55.8344
54.8162
53.2764
53.1559
53.8308
54.1399
53.8173
52.4819
50.0637
46.3762
41.5123
35.8164
29.7043
23.6
17.8853
12.8316
8.5718
5.13405
2.48197
0.48013
-0.943811
-1.87476
-2.40112
-2.60699
-2.57084
-2.36033
-2.04045
-1.66611
-1.27841
-0.907743
-0.572841
-0.282879
-0.0409036
0.157403
0.319935
0.457697
0.577068
0.687416
0.783887
0.873573
0.940997
1.00055
1.02887
1.07406
1.09033
1.16053
1.1823
1.26965
1.30092
1.38037
1.43774
1.49884
1.62184
1.76473
1.92044
2.21214
2.32407
2.67359
2.77788
3.18737
0.0715654
0.0756818
0.0799447
0.0842246
0.0887795
0.0932676
0.0980084
0.102964
0.107582
0.112924
0.11759
0.122423
0.128181
0.131425
0.138256
0.141108
0.146086
0.152189
0.150484
0.163613
0.155487
0.166521
0.17876
0.171913
0.203337
0.182479
0.206996
0.192406
0.19073
0.205394
0.171096
0.20245
0.162515
0.16778
0.171157
0.091907
0.166333
0.0529393
0.0521195
-0.117572
0.14209
-0.489023
-0.347767
-0.885944
-1.03627
-1.76635
-2.38957
-2.53497
-2.81313
-2.64569
-3.51185
-0.309208
-1.12271
-4.71719
3.82196
-5.29001
-7.74941
-13.9575
-18.8747
-21.697
-41.3475
-62.6871
-70.6574
-111.153
-153.533
-165.423
-177.767
-162.014
-145.745
-100.469
-49.6664
-67.176
-23.772
50.9975
75.3605
115.089
205.24
241.389
254.245
269.804
279.052
263.863
229.193
183.961
130.216
77.613
35.5694
7.23315
-17.6022
-31.1733
-39.7703
-45.8957
-50.2223
-52.9538
-54.1381
-54.0845
-53.3997
-51.7263
-49.2547
-46.5073
-44.0276
-43.4204
-46.2307
-51.1838
-56.0454
-59.1067
-58.8051
-53.9029
-43.7601
-28.7029
-10.5396
7.24055
21.5074
35.1506
45.1735
52.0811
56.4192
58.6681
59.6842
60.076
59.3532
58.3728
57.5409
57.2143
57.0215
55.8921
53.9411
51.1267
47.3802
42.692
37.2442
31.3806
25.4955
19.9383
14.973
10.747
7.29361
4.58981
2.57369
1.13976
0.188783
-0.375699
-0.630243
-0.644084
-0.479688
-0.196346
0.150049
0.517596
0.876456
1.20628
1.49558
1.73929
1.93714
2.09552
2.22297
2.33003
2.42197
2.50523
2.57319
2.63228
2.66642
2.69209
2.68846
2.70562
2.69404
2.73674
2.72358
2.782
2.77465
2.84452
2.88487
2.93678
3.06611
3.16359
3.3359
3.49561
3.64679
3.88517
3.9249
4.06302
0.0741173
0.080028
0.0859922
0.0917742
0.0994484
0.105196
0.113452
0.121267
0.127263
0.138347
0.142965
0.152121
0.164185
0.161451
0.186027
0.175482
0.195947
0.204265
0.188691
0.24309
0.174999
0.257929
0.190324
0.19617
0.25323
0.106607
0.284
0.0990545
0.210782
0.167952
0.0740953
0.214315
-0.0286914
0.11311
-0.0168795
-0.175953
-0.0871422
-0.264005
-0.407133
-2.31107
0.391987
-2.07729
-2.95949
-1.80563
-7.18917
1.81514
-15.0513
-8.10276
-19.704
-14.2669
-22.9163
-16.0557
-14.6179
-6.72788
-13.255
-28.9725
-12.4934
-63.058
-51.1731
-119.797
-142.231
-155.543
-178.194
-134.299
-84.121
-59.2036
-62.5397
-64.7656
-64.9399
-10.5586
9.12616
40.8642
104.12
137.191
147.639
166.329
190.6
198.445
195.781
187.469
170.279
145.925
115.666
83.0823
52.9641
28.1046
9.5934
-4.61622
-16.9773
-25.5302
-33.2637
-40.1209
-46.0442
-50.9209
-54.6098
-57.0525
-58.1676
-58.0219
-56.72
-54.8721
-53.2608
-52.7759
-53.4148
-54.2945
-54.4444
-52.887
-48.6578
-40.9695
-29.6095
-15.0591
0.578141
15.4425
28.5412
39.7283
46.7557
51.9667
55.3632
57.3922
58.7074
59.1014
58.1922
57.0996
56.0436
55.0549
53.7216
51.647
48.9077
45.5503
41.5454
36.8732
31.6837
26.3325
21.1891
16.5155
12.4743
9.12653
6.44524
4.39494
2.94156
1.95536
1.34755
1.04203
0.972973
1.08259
1.3152
1.62383
1.96916
2.31733
2.64392
2.93627
3.18743
3.39454
3.55924
3.68895
3.79199
3.87774
3.94963
4.01125
4.05547
4.08809
4.09377
4.09095
4.06176
4.05461
4.01832
4.03311
3.98749
4.01634
3.96961
4.01589
4.01553
4.051
4.15942
4.22423
4.36771
4.46086
4.56167
4.6853
4.68779
4.43691
0.028486
0.0300838
0.0251484
0.0256864
0.0285776
0.0202303
0.0264695
0.0173275
0.0111114
0.0132948
-0.00932678
-0.0102831
-0.0151868
-0.0642631
-0.0213294
-0.105089
-0.104948
0.0107792
-0.256497
-0.100986
-0.376138
-0.0701807
-0.419607
-0.28836
-0.2133
-0.739899
0.0196642
-1.08775
-0.143758
-0.97067
-0.927291
-0.427084
-2.07721
-0.0828798
-2.78454
-0.973786
-2.3933
-3.88305
-2.90686
-7.54358
-5.33415
-11.0217
-10.4064
-13.6523
-19.0109
-18.1993
-32.7034
-26.5021
-43.59
-43.5365
-42.8134
-41.3813
-18.8937
-55.146
-40.0798
-96.4895
-109.176
-132.102
-205.06
-124.408
-73.8915
-21.8989
8.71374
17.5867
21.9029
26.1289
50.6574
83.2658
73.7867
63.1077
57.8435
70.6518
95.3809
110.838
120.793
129.296
130.748
123.279
111.649
98.3161
84.1872
68.0343
51.9065
37.4828
25.6428
16.1023
7.92172
0.763454
-7.38309
-14.5002
-22.0406
-29.349
-36.3181
-42.7746
-48.5393
-53.445
-57.2478
-59.858
-61.2535
-61.537
-61.0287
-59.8381
-57.9622
-55.2476
-51.4825
-46.3574
-39.515
-30.3311
-18.9884
-5.68027
6.7228
18.6479
29.0695
36.7868
42.4999
46.5906
49.2556
50.7769
51.3598
50.8769
49.8373
48.6983
47.4767
46.1526
44.4745
42.3248
39.7969
36.994
33.856
30.1442
25.879
21.5275
17.4464
13.8201
10.7445
8.23088
6.21621
4.73301
3.72325
3.05208
2.66471
2.5073
2.52914
2.68145
2.91784
3.20701
3.52012
3.82552
4.10774
4.35748
4.56981
4.74312
4.88042
4.98897
5.0758
5.14816
5.20714
5.25401
5.28223
5.29642
5.28395
5.26362
5.22091
5.19716
5.14457
5.13458
5.06518
5.0659
4.98813
5.0083
4.96261
4.98
5.03617
5.05808
5.13802
5.1786
5.17676
5.23904
5.08582
4.48365
-0.27498
-0.359227
-0.461863
-0.455167
-0.523023
-0.558185
-0.592744
-0.680377
-0.707352
-0.80304
-0.86558
-0.942001
-1.01905
-1.13847
-1.12882
-1.33609
-1.19536
-1.49339
-1.35975
-1.51989
-1.65219
-1.4853
-1.92208
-1.60071
-1.97369
-1.99703
-1.84517
-2.47677
-1.9149
-2.60623
-2.57198
-2.26677
-3.64558
-2.04727
-4.31189
-2.86588
-4.10903
-4.14902
-1.5641
-5.42066
0.102061
-3.35545
-2.50701
-0.0379973
-6.09759
1.42977
-2.67428
-3.2732
10.7808
40.155
13.5283
-7.57749
-69.8364
-195.626
-231.312
-252.931
-232.081
-87.7335
17.0876
78.7464
214.883
269.542
234.223
157.793
100.138
79.7754
65.0012
42.8514
27.4782
24.0051
28.8301
38.4275
47.9155
53.7738
56.4354
55.6715
50.9815
45.2205
40.0252
35.5626
31.4946
27.0986
23.351
20.2151
17.3377
14.3441
11.0597
7.32648
3.1215
-1.40818
-7.11471
-12.8603
-18.8809
-25.0068
-31.1607
-37.2872
-43.1893
-48.6224
-53.2891
-56.6597
-58.4873
-58.4125
-56.2674
-51.9381
-45.6701
-37.7914
-29.3552
-21.3093
-12.265
-2.56585
5.81145
13.2915
19.868
24.6205
27.9947
30.0218
31.4269
32.1783
32.3045
32.0147
31.6045
31.2073
30.7757
30.2794
29.6182
28.7506
27.782
26.8642
25.9472
24.441
21.6813
18.5296
15.5561
12.9144
10.6641
8.80164
7.3073
6.18535
5.38436
4.84581
4.52869
4.39138
4.39567
4.50461
4.68343
4.90331
5.13794
5.36931
5.58419
5.77315
5.93147
6.05891
6.15919
6.23736
6.29769
6.34396
6.37527
6.39178
6.38876
6.36954
6.32796
6.27972
6.2137
6.15672
6.07325
6.01563
5.90895
5.85449
5.73044
5.68928
5.5682
5.52721
5.4549
5.37906
5.30212
5.22027
4.97998
4.94167
4.36206
3.17435
0.923186
1.00662
1.08877
1.18485
1.28383
1.38938
1.50705
1.62672
1.76063
1.90071
2.04881
2.21396
2.38109
2.56946
2.76574
2.96694
3.209
3.43021
3.70621
3.96674
4.26378
4.58314
4.90003
5.27955
5.63844
6.06702
6.49594
6.97535
7.48935
8.03649
8.66819
9.27878
10.098
10.8219
11.7568
12.9803
13.6723
15.8056
16.8857
18.6291
22.6598
23.0821
28.4828
35.6118
34.5998
49.3498
67.6901
58.0333
87.641
216.885
205.581
90.6471
0.267658
-66.7544
-126.518
-65.5101
-1.64865
42.1336
12.0288
33.7975
55.6987
51.0937
35.4454
21.7782
14.3831
10.3981
2.45154
0.390362
0.964176
2.83083
5.33181
7.78606
9.63019
10.678
10.9986
10.5588
10.2563
10.0555
9.66685
9.07659
8.24145
7.1838
5.96691
4.54444
2.96094
1.08828
-1.04218
-0.985093
-0.91964
-1.17666
-1.66834
-2.52624
-4.63832
-9.28438
-12.4487
-15.6654
-18.6881
-21.1625
-22.7005
-22.9801
-21.808
-19.1485
-15.1684
-10.1711
-4.43038
0.521384
4.61952
10.1063
14.5141
17.8371
19.8752
20.696
20.2471
18.0786
14.2159
4.92255
-3.0348
-2.35536
-1.59898
-0.790806
0.0653424
0.960089
1.87177
2.79609
3.72455
4.53379
5.16469
5.94723
6.50231
6.55458
6.57572
6.59979
6.53082
6.37764
6.15405
5.87403
5.55483
5.21436
4.86615
4.52279
4.19485
3.89008
3.61414
3.37
3.15813
2.97728
2.82591
2.70165
2.60119
2.52077
2.45699
2.40679
2.36735
2.33584
2.30958
2.28649
2.26457
2.24274
2.21957
2.19499
2.16782
2.13967
2.10809
2.07619
2.03889
2.00335
1.95918
1.92067
1.86979
1.82855
1.77257
1.7223
1.66443
1.59302
1.52961
1.43269
1.34554
1.20269
1.07898
0.555057
-5.06902
-4.74994
-4.70625
-4.64657
-4.53262
-4.50562
-4.46251
-4.48865
-4.43846
-4.45672
-4.2801
-4.30934
-4.16781
-3.9516
-3.37217
-3.4048
-3.29631
-3.11132
-2.44808
-1.93491
-0.846848
-0.648222
-0.620613
-1.03739
-2.12594
0.802656
0.898648
1.04252
1.12208
1.26019
1.35004
1.36202
1.4032
1.40835
1.41299
1.29363
1.26713
1.12924
1.15587
1.13031
1.18264
1.24982
1.34722
1.39168
1.54156
2.04619
2.31717
2.50481
2.23212
0.731639
-0.666693
-0.678234
-0.696717
-0.743948
-0.764136
-0.781206
-0.86484
-0.927818
-0.979115
-1.05304
-1.20404
-1.24936
-1.28478
-1.27656
-1.19785
-1.11495
-0.904989
-0.835972
-0.755591
-0.599393
-0.0280091
0.121369
0.0875263
-0.614251
-2.82114
-2.0754
-2.10591
-2.14034
-2.18563
-2.2124
-2.24938
-2.27554
-2.3807
-2.40471
-2.47822
-2.51873
-2.5492
-2.58579
-2.57886
-2.50733
-2.39204
-2.11394
-2.01781
-1.89435
-1.76949
-1.33006
-1.2041
-1.2747
-1.99175
-4.29959
-2.81155
-2.8143
-2.81957
-2.8322
-2.83832
-2.85249
-2.88128
-2.94
-2.95141
-2.96758
-2.99162
-2.99958
-3.00971
-3.00384
-2.94303
-2.79623
-2.52991
-2.42233
-2.25517
-2.15051
-1.83703
-1.7698
-1.89076
-2.51402
-4.68444
-3.02862
-3.02548
-3.01116
-3.00334
-2.99581
-2.99584
-3.00715
-3.01941
-3.0083
-2.99805
-2.99393
-2.97671
-2.96969
-2.99022
-2.90374
-2.74992
-2.51793
-2.39577
-2.2176
-2.12582
-1.90684
-1.90552
-2.08062
-2.68952
-4.63927
-2.94944
-2.94421
-2.9202
-2.90426
-2.89011
-2.8734
-2.86273
-2.83631
-2.79533
-2.76308
-2.74072
-2.71144
-2.69854
-2.72558
-2.63879
-2.49549
-2.29692
-2.16011
-1.99128
-1.91267
-1.77023
-1.82878
-2.09899
-2.656
-4.41208
-2.6895
-2.68374
-2.65813
-2.64127
-2.62223
-2.58235
-2.54836
-2.48307
-2.4209
-2.37661
-2.34746
-2.3177
-2.30689
-2.33678
-2.25312
-2.13761
-1.97297
-1.82911
-1.68225
-1.61741
-1.54195
-1.64498
-2.00612
-2.56136
-4.21326
-2.3068
-2.30333
-2.28252
-2.26819
-2.2385
-2.16712
-2.11164
-2.01311
-1.9472
-1.90554
-1.88086
-1.85851
-1.85635
-1.88473
-1.88167
-1.78972
-1.63099
-1.46142
-1.33
-1.26064
-1.26092
-1.39579
-1.85327
-2.44173
-4.04238
-1.82692
-1.83251
-1.82079
-1.80844
-1.7542
-1.64975
-1.58081
-1.52472
-1.48481
-1.45784
-1.44375
-1.43367
-1.44282
-1.47021
-1.53476
-1.45161
-1.27734
-1.06814
-0.946487
-0.870331
-0.92761
-1.08997
-1.67801
-2.25943
-3.79384
-1.24575
-1.28466
-1.28245
-1.2658
-1.17059
-1.09545
-1.03799
-1.03807
-1.03338
-1.02763
-1.02893
-1.03603
-1.06089
-1.09961
-1.15324
-1.0672
-0.882878
-0.649316
-0.550592
-0.466206
-0.573878
-0.79148
-1.45506
-2.01869
-3.4591
-0.611355
-0.644799
-0.664418
-0.632122
-0.541674
-0.524205
-0.49981
-0.505981
-0.522375
-0.536935
-0.555854
-0.580784
-0.623348
-0.681835
-0.736462
-0.647027
-0.459423
-0.219449
-0.135207
-0.073925
-0.220991
-0.500006
-1.19212
-1.72872
-3.05696
0.103285
0.0790199
0.0366668
0.0967325
0.116627
0.100753
0.0937795
0.0702245
0.0363472
0.00535482
-0.0321785
-0.0745281
-0.133985
-0.216057
-0.282585
-0.197363
-0.0163084
0.212931
0.280571
0.304498
0.119132
-0.219489
-0.899908
-1.39849
-2.61015
0.917
0.883912
0.830543
0.862677
0.833047
0.775773
0.74075
0.689251
0.633841
0.589744
0.532563
0.471165
0.398229
0.293004
0.210961
0.279925
0.440731
0.641568
0.685684
0.660238
0.433449
0.0454898
-0.589243
-1.04069
-2.13334
1.83525
1.76769
1.71154
1.65292
1.5933
1.49462
1.43814
1.35461
1.26518
1.21375
1.13537
1.04625
0.965624
0.839315
0.740647
0.77998
0.906016
1.06112
1.07293
0.984191
0.708207
0.290763
-0.271898
-0.670328
-1.64316
2.82744
2.72495
2.64465
2.51498
2.40274
2.27599
2.1739
2.06367
1.94353
1.8763
1.77327
1.63553
1.5581
1.41124
1.29709
1.29288
1.37067
1.46805
1.43717
1.26825
0.926773
0.517152
0.0389795
-0.303534
-1.15759
3.84698
3.71823
3.59449
3.4239
3.26135
3.1006
2.95908
2.81563
2.67367
2.56112
2.42238
2.25783
2.16755
1.99204
1.86762
1.80228
1.8264
1.85567
1.7728
1.50645
1.07166
0.731309
0.329774
0.0430712
-0.693899
4.85267
4.69935
4.52949
4.33797
4.14208
3.95232
3.7771
3.59926
3.42592
3.26835
3.08361
2.89304
2.74727
2.56044
2.43638
2.28674
2.26511
2.21463
2.0704
1.69292
1.12897
0.94626
0.583866
0.354156
-0.268457
5.60138
5.46068
5.30418
5.12964
4.94554
4.75854
4.57139
4.37189
4.16925
3.96881
3.73413
3.4944
3.29051
3.10009
2.89093
2.77309
2.68161
2.52474
2.32118
1.82516
1.1945
1.06657
0.788816
0.617384
0.103847
5.62512
5.65904
5.64556
5.59263
5.50606
5.38623
5.23535
5.04904
4.83954
4.61148
4.33413
4.03726
3.77992
3.56261
3.28465
3.17809
3.03266
2.77763
2.51683
1.90609
1.22726
1.13191
0.939762
0.823581
0.410961
5.3806
5.53739
5.65882
5.74238
5.77851
5.76023
5.68472
5.54982
5.36728
5.14017
4.84091
4.49781
4.19221
3.9383
3.60355
3.47853
3.30678
2.96283
2.64885
1.93826
1.22324
1.15167
1.03433
0.967346
0.644675
5.38306
5.52389
5.66514
5.79511
5.89487
5.94729
5.93963
5.8648
5.72808
5.5265
5.23007
4.8622
4.51466
4.21307
3.84666
3.66666
3.5012
3.06117
2.70649
1.9259
1.18747
1.13248
1.07399
1.04809
0.801743
5.58042
5.66527
5.76561
5.87716
5.98145
6.05672
6.08371
6.05002
5.95343
5.78396
5.50626
5.13474
4.75351
4.39389
4.00303
3.79362
3.57015
3.057
2.68224
1.87386
1.12718
1.08265
1.0647
1.07036
0.884716
5.86959
5.90163
5.9494
6.01813
6.09494
6.15929
6.19023
6.17226
6.0974
5.95124
5.69537
5.3344
4.92772
4.49712
3.99868
3.81804
3.52698
2.94812
2.57721
1.78638
1.0506
1.01359
1.01756
1.04454
0.90313
6.22564
6.20818
6.20381
6.2226
6.25693
6.29043
6.30387
6.28061
6.20828
6.07046
5.83043
5.48629
5.06114
4.54617
3.98988
3.7849
3.41556
2.74905
2.40302
1.66714
0.966893
0.939209
0.948319
0.986539
0.87391
6.64974
6.58125
6.52648
6.4937
6.47848
6.46935
6.45092
6.40702
6.32174
6.17748
5.94342
5.61605
5.17789
4.57489
3.95816
3.71145
3.24408
2.48925
2.18002
1.52035
0.886585
0.875044
0.876261
0.9168
0.820887
7.14756
7.02638
6.92247
6.83767
6.76899
6.70971
6.6494
6.57384
6.46437
6.30187
6.06355
5.74892
5.30181
4.62156
3.91402
3.61826
3.05541
2.21479
1.93087
1.35407
0.820839
0.835944
0.821653
0.857995
0.772743
7.7835
7.608
7.45148
7.3084
7.17719
7.0564
6.94154
6.82221
6.6779
6.48642
6.23371
5.92534
5.47141
4.72719
3.8728
3.51846
2.90861
1.94417
1.65065
1.16154
0.773428
0.83147
0.800053
0.828482
0.75694
8.61381
8.39059
8.17843
7.96891
7.76397
7.56848
7.38464
7.20909
7.02171
6.79315
6.51434
6.19967
5.73954
4.97317
3.93986
3.45953
2.86235
1.77726
1.36585
0.948253
0.755835
0.878914
0.84329
0.866065
0.821881
9.67144
9.39825
9.12323
8.83901
8.55194
8.27302
8.01125
7.77507
7.54656
7.28219
6.96899
6.6328
6.16874
5.39636
4.31268
3.4273
2.99568
1.77558
1.06868
0.762005
0.754694
0.955006
0.947696
0.977173
0.982673
11.1773
10.8161
10.447
10.0629
9.67335
9.29572
8.94466
8.6446
8.37626
8.07113
7.70146
7.31062
6.81618
6.01429
4.7996
3.64484
3.18143
1.79287
0.714695
0.559902
0.711056
1.00739
1.08028
1.13689
1.22083
13.3689
12.8651
12.3477
11.821
11.2951
10.7888
10.3319
9.94747
9.60321
9.20296
8.70606
8.16498
7.55029
6.63862
5.26191
3.93756
3.38093
1.72669
0.234725
0.213323
0.556037
0.968642
1.18925
1.29625
1.49249
15.767
15.1468
14.4987
13.8354
13.1852
12.5712
11.9968
11.4661
10.9315
10.3237
9.61251
8.86334
8.0564
6.97964
5.44461
4.14437
3.45233
1.22506
-0.232007
-0.294875
0.230401
0.774554
1.22027
1.39507
1.74728
16.8198
16.3511
15.8125
15.2016
14.5427
13.8625
13.1599
12.4232
11.6855
10.892
9.9869
9.03492
8.05511
6.85876
5.35476
4.19429
3.29016
0.505928
-0.952818
-1.0009
-0.308178
0.3806
1.12758
1.3678
1.94831
16.2651
16.0975
15.7916
15.3422
14.7708
14.1166
13.373
12.4766
11.6629
10.8038
9.80622
8.71577
7.62511
6.36517
4.86595
4.09515
2.74342
-0.386939
-1.84445
-1.9186
-1.08189
-0.237772
0.876576
1.13515
2.08801
14.48
14.569
14.5052
14.2687
13.8718
13.3291
12.6354
11.9845
11.2728
10.4161
9.34328
8.15489
6.95047
5.65594
4.44756
3.56808
1.91413
-1.41674
-2.9018
-3.06029
-2.10111
-1.08479
0.427712
0.773651
2.06779
12.1934
12.5017
12.668
12.656
12.4679
12.0993
11.5715
11.1067
10.4901
9.66062
8.5253
7.30022
6.13272
4.8376
3.98847
2.54117
0.86401
-2.49548
-4.16013
-4.45822
-3.36587
-2.16623
-0.242578
0.225214
1.82731
10.1676
10.6067
10.9237
11.0805
11.0716
10.8863
10.5274
10.0924
9.56427
8.79085
7.60291
6.35217
5.03883
4.20961
3.02217
1.35754
-0.440575
-3.67965
-5.69962
-6.13709
-4.89247
-3.50672
-1.17548
-0.612525
1.26742
9.1465
9.52539
9.84734
10.0529
10.1328
10.0795
9.8159
9.38365
8.90826
8.16228
6.83166
5.41478
4.24238
3.41769
1.95624
0.0608528
-1.94803
-4.8728
-7.55757
-8.14011
-6.7356
-5.17612
-2.46625
-1.90102
0.213556
9.31138
9.5855
9.83012
9.97637
10.0363
10.0225
9.75206
9.24644
8.77204
8.02468
6.39586
4.57282
3.82863
2.31055
0.800001
-1.19386
-3.05368
-6.2728
-9.43786
-10.4681
-9.03962
-7.32667
-4.32148
-3.93643
-1.66155
10.4112
10.5491
10.6883
10.7265
10.7041
10.6701
10.3256
9.66473
9.1276
8.33782
6.24018
4.11115
3.34774
1.30299
-0.736603
-2.64728
-4.2928
-7.50352
-10.8082
-12.7632
-11.7236
-10.2298
-7.14423
-7.27256
-4.9686
11.469
11.5513
11.6338
11.5892
11.4857
11.4162
10.9935
10.1586
9.48534
8.5711
6.17047
3.4692
2.43976
0.176447
-2.18674
-4.83156
-5.89158
-8.94457
-12.2563
-15.0291
-14.8769
-14.2214
-11.4858
-12.6883
-10.5989
10.7013
10.8904
11.0588
11.0829
11.0283
10.997
10.5563
9.62408
8.75811
7.67036
5.45059
2.58832
0.326441
-1.20303
-3.91085
-7.65481
-8.60359
-11.2674
-14.0316
-18.6727
-19.1091
-18.8938
-17.133
-20.029
-18.5577
7.00949
7.37678
7.72073
7.91533
7.99378
8.03271
7.62028
6.7596
5.79668
4.55921
2.4618
-0.233542
-3.04788
-5.40737
-7.15121
-11.2218
-12.6035
-14.472
-16.947
-21.162
-22.2142
-22.637
-22.3652
-27.1463
-26.6007
1.19484
1.78306
2.30135
2.62792
2.77577
2.80234
2.51483
1.89272
0.934454
-0.471524
-2.74697
-5.44604
-8.20963
-10.6239
-13.2598
-14.6729
-14.8677
-14.9949
-18.2171
-21.1152
-22.92
-24.4736
-25.8107
-31.74
-32.6306
-2.5874
-2.3169
-2.01324
-1.82544
-1.82253
-1.95755
-2.4015
-3.09203
-4.19058
-5.67062
-7.51364
-9.56946
-11.7879
-13.8737
-15.6089
-15.4104
-13.7652
-12.6027
-15.6521
-19.9453
-21.8383
-23.8522
-26.1996
-32.0738
-36.6323
-4.10502
-4.14337
-4.15648
-4.27231
-4.50363
-4.91639
-5.53455
-6.25242
-7.37275
-8.70938
-9.98808
-11.3134
-12.8324
-14.1979
-14.8522
-13.2112
-10.4109
-8.72138
-12.0781
-16.7434
-20.0978
-21.2201
-24.4355
-30.7064
-37.0117
-4.09354
-4.22806
-4.47914
-5.0642
-5.36127
-6.05596
-6.77314
-7.5098
-8.51506
-9.59604
-10.3406
-11.0378
-12.2172
-12.9814
-12.7313
-9.99354
-6.48503
-4.49724
-8.10128
-12.9323
-16.8041
-17.9708
-21.3717
-28.1346
-35.2743
-2.40275
-2.98036
-3.61981
-4.42098
-5.01052
-6.02022
-6.59339
-7.52495
-8.5464
-9.38701
-9.68193
-9.90061
-10.7127
-11.0349
-10.0243
-6.42875
-2.52698
-0.812946
-4.48816
-9.1959
-13.1164
-14.3422
-17.9636
-25.0464
-32.2221
-0.229679
-0.912213
-1.72251
-3.02025
-3.91556
-4.89869
-5.94576
-6.54822
-7.57376
-8.31391
-8.4177
-8.40996
-9.03489
-9.04175
-7.38482
-3.12225
0.848662
2.33168
-1.24673
-5.68086
-9.40337
-10.6517
-14.5094
-21.7735
-28.3944
1.66449
0.937
0.0347546
-1.39115
-2.50304
-3.56421
-4.78761
-5.65208
-6.21654
-6.9556
-6.98222
-6.85679
-7.39032
-7.13103
-4.8665
-0.170229
3.68756
4.97376
1.65744
-2.47086
-5.81507
-7.02256
-11.2378
-18.3837
-24.0235
3.06422
2.44479
1.49795
0.130441
-1.07222
-2.22533
-3.59089
-4.51696
-5.0803
-5.39025
-5.52548
-5.32337
-5.78918
-5.30703
-2.58206
2.35277
6.04528
7.12788
4.19523
0.414723
-2.35549
-3.48056
-8.24069
-14.7527
-19.1726
3.98227
3.62337
2.69727
1.38003
0.177886
-1.01857
-2.43811
-3.37704
-3.82714
-4.01382
-4.01321
-3.8289
-4.16334
-3.42897
-0.618571
4.45861
7.95258
8.82726
6.35485
3.06328
1.11279
0.071225
-5.5848
-10.1278
-13.9208
4.64314
4.51163
3.63427
2.33585
1.21853
0.0457751
-1.306
-2.16815
-2.49169
-2.57601
-2.44283
-2.32705
-2.36278
-1.4787
1.18321
6.28584
9.49362
10.1939
8.28828
5.77072
4.99563
3.82269
-1.73084
-5.09388
-7.79972
5.19747
5.20539
4.34779
3.15621
2.19437
1.15357
0.0225231
-0.64157
-0.814765
-0.787587
-0.597313
-0.461036
-0.201666
1.0306
2.95908
8.24521
11.0576
11.6855
10.4717
9.5133
9.40386
8.31146
3.42581
1.2291
-0.239715
5.02035
5.22001
4.69669
3.97437
3.36509
2.64506
1.93166
1.60688
1.63013
1.79767
2.04139
2.31161
3.01966
4.64453
7.58415
11.4297
13.7966
14.468
14.1327
13.6963
13.709
12.2971
9.01272
8.03637
8.12081
1.42144
2.15728
2.42281
2.40364
2.33318
2.21126
2.11331
2.11289
2.1939
2.32558
2.52564
2.84429
3.39632
4.17325
5.07818
5.85559
6.36379
6.35641
6.60724
6.48923
6.63348
6.14372
6.21673
5.7543
6.43327
)
;

boundaryField
{
    inlet
    {
        type            calculated;
        value           uniform 0;
    }
    outlet
    {
        type            calculated;
        value           nonuniform List<scalar> 
57
(
-2.12594
0.731639
-2.82114
-4.29959
-4.68444
-4.63927
-4.41208
-4.21326
-4.04238
-3.79384
-3.4591
-3.05696
-2.61015
-2.13334
-1.64316
-1.15759
-0.693899
-0.268457
0.103847
0.410961
0.644675
0.801743
0.884716
0.90313
0.87391
0.820887
0.772743
0.75694
0.821881
0.982673
1.22083
1.49249
1.74728
1.94831
2.08801
2.06779
1.82731
1.26742
0.213556
-1.66155
-4.9686
-10.5989
-18.5577
-26.6007
-32.6306
-36.6323
-37.0117
-35.2743
-32.2221
-28.3944
-24.0235
-19.1726
-13.9208
-7.79972
-0.239715
8.12081
6.43327
)
;
    }
    upperWall
    {
        type            calculated;
        value           nonuniform List<scalar> 
223
(
-0.00423143
0.00444415
-0.00349298
0.0131968
0.00913324
0.0427096
0.0440495
0.103552
0.108287
0.201087
0.2615
0.197767
0.391726
0.469708
0.546688
0.606553
0.723457
0.840415
0.923186
1.00662
1.08877
1.18485
1.28383
1.38938
1.50705
1.62672
1.76063
1.90071
2.04881
2.21396
2.38109
2.56946
2.76574
2.96694
3.209
3.43021
3.70621
3.96674
4.26378
4.58314
4.90003
5.27955
5.63844
6.06702
6.49594
6.97535
7.48935
8.03649
8.66819
9.27878
10.098
10.8219
11.7568
12.9803
13.6723
15.8056
16.8857
18.6291
22.6598
23.0821
28.4828
35.6118
34.5998
49.3498
67.6901
58.0333
87.641
216.885
205.581
90.6471
0.267658
-66.7544
-126.518
-65.5101
-1.64865
42.1336
12.0288
33.7975
55.6987
51.0937
35.4454
21.7782
14.3831
10.3981
2.45154
0.390362
0.964176
2.83083
5.33181
7.78606
9.63019
10.678
10.9986
10.5588
10.2563
10.0555
9.66685
9.07659
8.24145
7.1838
5.96691
4.54444
2.96094
1.08828
-1.04218
-0.985093
-0.91964
-1.17666
-1.66834
-2.52624
-4.63832
-9.28438
-12.4487
-15.6654
-18.6881
-21.1625
-22.7005
-22.9801
-21.808
-19.1485
-15.1684
-10.1711
-4.43038
0.521384
4.61952
10.1063
14.5141
17.8371
19.8752
20.696
20.2471
18.0786
14.2159
4.92255
-3.0348
-2.35536
-1.59898
-0.790806
0.0653424
0.960089
1.87177
2.79609
3.72455
4.53379
5.16469
5.94723
6.50231
6.55458
6.57572
6.59979
6.53082
6.37764
6.15405
5.87403
5.55483
5.21436
4.86615
4.52279
4.19485
3.89008
3.61414
3.37
3.15813
2.97728
2.82591
2.70165
2.60119
2.52077
2.45699
2.40679
2.36735
2.33584
2.30958
2.28649
2.26457
2.24274
2.21957
2.19499
2.16782
2.13967
2.10809
2.07619
2.03889
2.00335
1.95918
1.92067
1.86979
1.82855
1.77257
1.7223
1.66443
1.59302
1.52961
1.43269
1.34554
1.20269
1.07898
0.555057
1.42144
2.15728
2.42281
2.40364
2.33318
2.21126
2.11331
2.11289
2.1939
2.32558
2.52564
2.84429
3.39632
4.17325
5.07818
5.85559
6.36379
6.35641
6.60724
6.48923
6.63348
6.14372
6.21673
5.7543
6.43327
)
;
    }
    lowerWall
    {
        type            calculated;
        value           nonuniform List<scalar> 
250
(
0.00632135
-0.00715349
0.00343319
-0.0355151
-0.0379109
-0.133087
-0.151661
-0.31196
-0.391265
-0.554129
-0.754199
-1.02984
-1.23457
-1.61593
-2.13493
-2.31984
-2.4075
-4.15003
-0.040073
-0.0769336
-0.137052
-0.172785
-0.134635
-0.00758549
0.217901
0.361639
0.553829
0.571861
0.47785
0.379253
0.261218
0.135739
-0.174948
-0.664971
-1.02683
-1.4126
-1.79257
-2.04113
-2.28709
-2.17934
-2.15177
-2.17537
-1.79452
-2.30022
-5.00052
-0.040073
-0.730177
-1.10441
-1.41607
-1.72497
-2.00757
-2.23957
-2.41954
-2.56114
-2.68342
-2.80224
-2.92822
-3.06483
-3.21513
-3.38169
-3.56584
-3.76707
-3.98325
-4.21205
-4.4534
-4.71143
-4.99391
-5.31081
-5.67596
-6.10151
-6.59497
-7.12969
-7.76272
-8.54222
-9.49982
-10.5321
-11.6326
-12.7465
-13.7109
-14.2458
-13.5094
-10.8403
-5.39385
3.40123
15.0048
27.9619
40.5654
51.6443
60.8354
68.3069
74.4041
79.4584
83.7359
87.5131
90.936
93.8176
96.4422
98.5716
100.165
101.179
101.33
100.757
100.172
100.053
99.688
98.7264
98.4379
98.0731
100.19
97.9175
99.3354
100.951
106.747
108.947
117.337
124.565
131.009
140.563
150.482
156.664
162.758
169.012
174.219
178.165
179.896
178.521
172.118
162.008
147.776
129.636
106.82
81.5993
70.4631
67.2566
62.7878
56.2578
49.709
43.7258
38.7152
34.1707
30.1849
26.6256
23.368
20.369
17.6362
15.3094
13.3427
11.6723
10.3665
9.52792
8.97788
8.59277
8.38632
8.23127
8.09209
8.16382
8.33621
8.40103
8.34747
8.2247
7.97599
7.57537
7.02786
6.37731
5.7108
4.96702
4.25524
3.60978
2.96344
2.41594
1.89674
1.35552
0.758013
0.150705
-0.498686
-1.26677
-1.67505
-2.43256
-3.16811
-3.80019
-4.39962
-4.9302
-5.41025
-5.86998
-6.27535
-6.60388
-6.87521
-7.12002
-7.33396
-7.49178
-7.56998
-7.56093
-7.4643
-7.31554
-7.16042
-7.01994
-6.8933
-6.8112
-6.77853
-6.75226
-6.71228
-6.70471
-6.69804
-6.7221
-6.64675
-6.62079
-6.36556
-6.3354
-6.33627
-6.31626
-6.29402
-6.25784
-6.23077
-6.19085
-6.1618
-6.11489
-6.08247
-6.01107
-5.99975
-5.84526
-5.95629
-5.60382
-5.9053
-5.40904
-5.77439
-5.06902
-4.74994
-4.70625
-4.64657
-4.53262
-4.50562
-4.46251
-4.48865
-4.43846
-4.45672
-4.2801
-4.30934
-4.16781
-3.9516
-3.37217
-3.4048
-3.29631
-3.11132
-2.44808
-1.93491
-0.846848
-0.648222
-0.620613
-1.03739
-2.12594
)
;
    }
    frontAndBack
    {
        type            empty;
    }
}


// ************************************************************************* //
