/*--------------------------------*- C++ -*----------------------------------*\
| =========                 |                                                 |
| \\      /  F ield         | OpenFOAM: The Open Source CFD Toolbox           |
|  \\    /   O peration     | Version:  2112                                  |
|   \\  /    A nd           | Website:  www.openfoam.com                      |
|    \\/     M anipulation  |                                                 |
\*---------------------------------------------------------------------------*/
FoamFile
{
    version     2.0;
    format      ascii;
    arch        "LSB;label=32;scalar=64";
    class       volScalarField;
    location    "0.02";
    object      ddt0(k);
}
// * * * * * * * * * * * * * * * * * * * * * * * * * * * * * * * * * * * * * //

dimensions      [0 2 -3 0 0 0 0];

internalField   nonuniform List<scalar> 
12225
(
0.00631931
-0.00714772
0.00343376
-0.0355157
-0.0379073
-0.133086
-0.151691
-0.311958
-0.391325
-0.554007
-0.754228
-1.0298
-1.23458
-1.61605
-2.13483
-2.32011
-2.40674
-4.14994
-0.000570854
0.000672836
0.011727
0.0161779
-0.0292879
0.158716
0.782335
-0.731959
1.82061
-1.58211
3.1466
-2.97827
0.334836
3.10012
-5.39599
4.92456
2.9231
1.43282
-0.000310151
-0.000777779
-0.000980985
-0.000314888
-0.0169559
0.0541052
-0.0630252
0.0116916
0.0185373
-0.00502357
-0.102684
0.128977
0.104635
-0.244395
-0.127603
0.40788
0.750662
0.0259815
-0.00024318
-0.00106165
-0.00223963
-0.0036817
-0.0122215
0.00809975
-0.0380722
-0.0156313
-0.0194765
-0.0470984
-0.103927
0.0171301
-0.109279
-0.177935
-0.201249
-0.0233086
0.11644
-0.43187
-0.000181639
-0.00126913
-0.00313921
-0.00600565
-0.0120834
-0.0078165
-0.0286628
-0.0258636
-0.0328629
-0.0539206
-0.0737176
-0.0549013
-0.109867
-0.133175
-0.169999
-0.183663
-0.08118
-0.283284
-9.69406e-05
-0.00141521
-0.00391568
-0.00798552
-0.013652
-0.0160565
-0.0291625
-0.034018
-0.0443929
-0.0609813
-0.0764871
-0.08704
-0.118903
-0.140734
-0.172425
-0.219634
-0.192288
-0.254742
-2.95938e-06
-0.00152107
-0.00455841
-0.00958613
-0.0156666
-0.0214226
-0.0324801
-0.0413868
-0.0540822
-0.0704139
-0.0881178
-0.107984
-0.13558
-0.161526
-0.193805
-0.236352
-0.246151
-0.284221
6.41736e-05
-0.00151505
-0.00499954
-0.0107957
-0.0175565
-0.0252743
-0.0362708
-0.0477295
-0.0623195
-0.0800633
-0.10062
-0.124799
-0.153405
-0.183143
-0.21688
-0.253712
-0.277657
-0.31521
0.000128142
-0.0014906
-0.00527732
-0.0115757
-0.0190223
-0.0280225
-0.0395937
-0.0528105
-0.0689953
-0.0884266
-0.11137
-0.138265
-0.168826
-0.201277
-0.235781
-0.270083
-0.300044
-0.335233
0.000280638
-0.00119033
-0.00529213
-0.0118063
-0.0198684
-0.0297414
-0.0419693
-0.0563916
-0.0737869
-0.0945728
-0.119164
-0.147766
-0.179888
-0.214017
-0.248927
-0.282459
-0.313688
-0.345998
0.000615434
-0.000817833
-0.00502153
-0.0115628
-0.0199782
-0.0303803
-0.0430873
-0.0582212
-0.0763195
-0.0978361
-0.123193
-0.152532
-0.185237
-0.220344
-0.255416
-0.288757
-0.319615
-0.349113
0.000811961
-0.000326372
-0.0043765
-0.0108205
-0.0193105
-0.0298805
-0.0427278
-0.0580369
-0.076214
-0.0976636
-0.122773
-0.151759
-0.184175
-0.218839
-0.254575
-0.288536
-0.319156
-0.346781
0.000918453
0.000182868
-0.00349852
-0.00965378
-0.0179681
-0.0284019
-0.0410586
-0.0560934
-0.0738006
-0.0945037
-0.118506
-0.146028
-0.177197
-0.210873
-0.247147
-0.280297
-0.310415
-0.339193
0.000949058
0.000691621
-0.0023508
-0.00789041
-0.015644
-0.0254995
-0.0374612
-0.0515964
-0.0680458
-0.0870236
-0.108724
-0.133353
-0.16131
-0.192863
-0.227249
-0.261472
-0.294973
-0.31778
0.000896867
0.00108596
-0.0010944
-0.00560866
-0.0122592
-0.0209004
-0.0314368
-0.0438054
-0.0580028
-0.0740527
-0.0920148
-0.112133
-0.134849
-0.161502
-0.190386
-0.222604
-0.26007
-0.286892
0.000757718
0.00124534
8.6509e-06
-0.00310931
-0.00804138
-0.0146655
-0.0228304
-0.0324021
-0.0432394
-0.0552015
-0.0682818
-0.0826617
-0.0988139
-0.117481
-0.139816
-0.165651
-0.194427
-0.229998
0.000531726
0.001086
0.000684297
-0.000862315
-0.00358782
-0.00743583
-0.0122953
-0.0180363
-0.0245175
-0.0316345
-0.0393672
-0.0478865
-0.0575792
-0.0690259
-0.0829111
-0.100063
-0.121201
-0.14609
0.000228778
0.000614719
0.000823974
0.000788823
0.000458786
-0.000189008
-0.00114767
-0.00240022
-0.00395614
-0.00585853
-0.00822372
-0.0112767
-0.0153433
-0.0208012
-0.0280318
-0.0374599
-0.0495134
-0.064634
-0.000118209
-1.90207e-05
0.000660471
0.00200338
0.00398207
0.0065072
0.00944526
0.0126432
0.0159366
0.0191223
0.0219594
0.0241811
0.0255088
0.0256723
0.024409
0.0214263
0.0163394
0.00864284
-0.000380436
-0.000372977
0.000849665
0.0033533
0.00700841
0.0116262
0.0169906
0.0228725
0.029035
0.0352325
0.0412155
0.0467375
0.0515636
0.0554743
0.0582532
0.0596476
0.0592993
0.0566708
-0.000515298
-0.000346289
0.00145049
0.00475153
0.00929829
0.0148505
0.0211783
0.0280555
0.0352616
0.0425796
0.0497955
0.0567024
0.0631038
0.0688149
0.0736522
0.0774065
0.079787
0.0803325
-0.000553451
-5.60626e-05
0.00224175
0.00595836
0.0107732
0.0164708
0.0228603
0.0297563
0.036981
0.0443651
0.0517393
0.0589379
0.0658015
0.0721777
0.0779169
0.0828581
0.0867927
0.0893782
-0.000502715
0.000334591
0.00289704
0.00660542
0.0111913
0.0164996
0.0223972
0.0287395
0.0353878
0.0422239
0.04912
0.0559484
0.0625868
0.068912
0.0748103
0.0801612
0.0848305
0.0886128
-0.000364932
0.000631657
0.00318348
0.00654948
0.0106053
0.0152208
0.0203327
0.0258285
0.0315872
0.0375584
0.0436464
0.0497527
0.0558066
0.0616936
0.0673552
0.0726889
0.077611
0.0820454
-0.000116081
0.000657757
0.00305126
0.00585162
0.00926013
0.0130138
0.0172081
0.0217575
0.026486
0.0314955
0.0366859
0.0419528
0.0473684
0.0527044
0.0580768
0.0633181
0.0683972
0.0733132
-3.56291e-05
0.000704388
0.00262133
0.00463099
0.0074606
0.0102068
0.0134665
0.0171823
0.0208367
0.0250528
0.0295475
0.0340698
0.0392577
0.0442026
0.0497587
0.0551924
0.0609425
0.0667638
-2.13567e-05
0.000578709
0.00215746
0.00290259
0.00555014
0.00696943
0.0093775
0.012846
0.0152327
0.0194448
0.0238575
0.0279559
0.0341754
0.0388566
0.0469986
0.0512037
0.0604018
0.068828
-6.25705e-05
0.00034368
0.0016141
0.000242775
0.00341601
0.00217679
0.00280595
0.00718838
0.00431072
0.00985984
0.0106934
0.0126635
0.0177606
0.00500779
0.0459611
-0.0108275
0.0320454
0.0442547
-0.000539909
0.000470702
-0.00362147
-0.00609874
-0.0112121
-0.019577
-0.0337022
-0.0299051
-0.0695489
-0.0580773
-0.102438
-0.103885
-0.150713
-0.386641
0.288413
-0.770276
-0.334642
-0.031827
-0.00423143
0.00444373
-0.00349214
0.0131949
0.00913524
0.0427078
0.0440506
0.103553
0.108286
0.201076
0.263625
0.166728
0.431728
0.461821
0.544252
0.608466
0.721057
0.839954
-0.040073
-0.730178
-1.10441
-1.41607
-1.72497
-2.00757
-2.23957
-2.41955
-2.56114
-2.68342
-2.80223
-2.92822
-3.06483
-3.21514
-3.3817
-3.56584
-3.76707
-3.98325
-4.21205
-4.4534
-4.71145
-4.99392
-5.3108
-5.67593
-6.10148
-6.59497
-7.12971
-7.76274
-8.54223
-9.49981
-10.5321
-11.6326
-12.7465
-13.7109
-14.2458
-13.5094
-10.8403
-5.39387
3.40124
15.0048
27.9619
40.5653
51.6442
60.8351
68.3066
74.4038
79.4582
83.7358
87.513
90.9359
93.8175
96.4421
98.5715
100.165
101.179
101.33
100.757
100.172
100.052
99.6878
98.7262
98.4378
98.0729
100.19
97.9172
99.3351
100.951
106.747
108.946
117.337
124.565
131.008
140.563
150.482
156.664
162.757
169.011
174.219
178.165
179.896
178.521
172.118
162.008
147.776
129.636
106.82
81.5992
70.4631
67.2566
62.7878
56.2577
49.7089
43.7257
38.7151
34.1706
30.1847
26.6255
23.3678
20.3688
17.6361
15.3094
13.3426
11.6723
10.3665
9.52786
8.97781
8.59273
8.38629
8.23127
8.09215
8.16383
8.33621
8.40107
8.34748
8.22468
7.97601
7.57539
7.0278
6.37722
5.71077
4.96701
4.2552
3.60975
2.96339
2.41587
1.89657
1.35539
0.758071
0.150785
-0.498628
-1.26676
-1.67495
-2.43226
-3.16818
-3.80026
-4.39959
-4.93013
-5.41021
-5.86998
-6.27535
-6.60389
-6.87532
-7.12014
-7.33408
-7.49172
-7.56983
-7.56089
-7.4644
-7.31574
-7.16042
-7.01985
-6.89333
-6.81109
-6.77832
-6.75232
-6.71238
-6.70412
-6.69986
-6.69378
-6.7504
-6.65765
-6.35304
-6.3416
-6.34223
-6.3193
-6.29538
-6.2584
-6.23103
-6.19103
-6.16183
-6.11473
-6.08231
-6.01098
-5.99975
-5.84533
-5.95637
-5.60389
-5.90531
-5.40906
-5.77447
-0.0769337
-1.22594
-2.33647
-3.36171
-4.35795
-5.20231
-5.82295
-6.22824
-6.48313
-6.66108
-6.81365
-6.96514
-7.12338
-7.29337
-7.47499
-7.65949
-7.82421
-7.93056
-7.92982
-7.77531
-7.43245
-6.88838
-6.18365
-5.39712
-4.43774
-3.25095
-1.9069
-0.382243
1.34521
3.25062
5.10863
6.9071
8.72264
10.7763
13.4096
16.9814
21.6383
27.3698
33.8247
40.4353
46.5182
50.8481
56.3622
59.1475
60.2486
59.3738
56.9
52.7999
47.1794
44.2028
37.2029
31.3642
23.8436
16.2804
8.53202
0.229476
-8.14896
-16.0097
-23.282
-30.51
-37.4855
-44.2852
-50.2181
-55.5184
-60.2069
-63.529
-65.9396
-66.4108
-63.9009
-57.1746
-60.0121
-36.1389
-19.9232
-15.6881
12.9423
31.0761
57.0959
82.9864
111.32
141.381
173.184
207.654
231.01
250.245
264.08
270.257
265.016
238.893
219.41
201.351
181.917
163.437
145.802
129.009
114.967
102.307
90.7477
80.0136
70.0368
60.94
52.9746
46.23
40.7891
36.6836
33.8267
32.0847
31.3057
31.3997
32.0094
32.7622
33.8411
34.9007
35.4052
35.6092
35.7318
35.5589
34.9576
33.9512
32.5658
30.9189
29.0187
27.0228
24.9244
22.608
20.353
18.168
15.9567
13.7507
11.6781
9.76247
8.04385
6.52193
5.1769
4.05315
3.13604
2.35379
1.73211
1.28268
0.926097
0.639795
0.441484
0.331259
0.273216
0.22607
0.191897
0.193188
0.233559
0.319413
0.432515
0.543314
0.61944
0.648015
0.631424
0.569335
0.474655
0.351128
0.220353
0.112862
0.0484597
0.0365915
0.0567221
0.102109
0.206656
0.274939
0.391854
0.442956
0.514694
0.549021
0.592449
0.620423
0.657117
0.684121
0.714266
0.744274
0.785951
0.825886
0.901699
0.962458
0.970735
0.955598
-0.137052
-1.81598
-3.59068
-5.20357
-6.65524
-7.90031
-8.88865
-9.62261
-10.1502
-10.5363
-10.8432
-11.1208
-11.4081
-11.7301
-12.1014
-12.5256
-12.9934
-13.4832
-13.9673
-14.4195
-14.8145
-15.104
-15.1872
-14.9482
-14.3711
-13.42
-12.0593
-10.2815
-8.12394
-5.69095
-3.14626
-0.638139
1.81015
4.36288
7.35559
11.1229
15.7508
21.0006
26.5498
31.9697
36.605
40.4707
39.8125
38.7743
36.0889
32.68
27.4046
21.8175
16.1626
6.43321
-2.46845
-12.4568
-22.2771
-31.2747
-39.665
-48.5011
-56.3012
-63.2948
-69.9644
-76.3201
-82.3686
-88.44
-95.1981
-102.027
-108.393
-113.686
-118.096
-123.323
-126.523
-126.91
-124.688
-121.706
-121.405
-107.785
-90.0545
-86.4971
-58.8993
-37.5277
-15.6966
3.69943
28.2982
37.5917
72.1216
105.511
137.356
168.338
204.614
237.667
246.985
244.992
232.177
211.833
196.284
179.101
162.405
147.158
132.672
118.42
104.529
91.3062
79.1283
68.3007
59.033
51.4924
45.737
41.7706
39.5143
38.8013
39.4018
40.8364
42.8187
44.7637
45.9134
46.694
47.3718
47.5796
47.1768
46.4315
45.1646
43.4389
41.3191
38.8794
36.1742
33.2408
30.1773
27.0865
24.0776
21.2189
18.4716
15.913
13.5955
11.5296
9.70789
8.14278
6.82457
5.71455
4.80222
4.07969
3.50839
3.05934
2.71913
2.47193
2.28674
2.14703
2.0466
1.98895
1.96651
1.97437
2.00679
2.04949
2.06671
2.03606
1.9388
1.77434
1.55083
1.27515
0.970329
0.666716
0.396581
0.168927
-0.0110632
-0.148142
-0.247055
-0.323907
-0.394154
-0.464708
-0.543234
-0.616984
-0.700345
-0.768354
-0.848678
-0.908439
-0.97778
-1.00218
-1.04196
-1.03972
-1.05742
-0.952099
-0.909256
-0.654622
-0.172784
-2.13616
-4.31336
-6.15697
-7.73522
-9.06254
-10.1364
-10.9728
-11.608
-12.0882
-12.4633
-12.7862
-13.0979
-13.4319
-13.8135
-14.2588
-14.774
-15.3546
-15.9856
-16.6428
-17.2907
-17.874
-18.307
-18.4794
-18.2808
-17.5944
-16.3029
-14.3113
-11.589
-8.22918
-4.47795
-0.665761
2.96174
6.40202
9.93576
13.9563
18.8609
24.3265
30.3297
35.9101
39.6279
41.8602
42.1483
40.2715
36.4811
31.0762
19.8081
7.78001
-5.51002
-17.6335
-26.8322
-45.2807
-50.3337
-53.378
-56.9754
-64.3097
-65.0429
-66.7949
-69.1597
-72.6935
-72.6298
-72.012
-71.9768
-73.4516
-76.813
-82.4814
-91.4869
-102.269
-115.448
-130.568
-146.431
-175.548
-196.314
-221.121
-234.454
-250.654
-245.047
-193.454
-170.185
-145.265
-128.579
-78.4374
-45.4853
-14.1629
15.251
42.5297
61.0606
77.584
107.224
135.48
169.472
194.116
200.67
193.555
182.362
172.446
161.239
149.045
135.768
121.927
108.092
94.7856
82.4582
71.4636
62.0879
54.4819
48.7191
44.8096
42.7353
42.3725
43.6085
46.373
49.5824
51.5865
52.8471
53.3913
53.0607
52.6264
51.4205
49.6977
47.4797
44.8097
41.7579
38.4416
34.9615
31.4485
28.0398
24.8228
21.8368
19.1042
16.6477
14.4598
12.5249
10.837
9.38168
8.13451
7.07786
6.19676
5.46947
4.874
4.38801
3.99654
3.68489
3.43762
3.24332
3.09485
2.98257
2.89823
2.83243
2.77095
2.69235
2.58163
2.43042
2.22987
1.96861
1.65347
1.3002
0.934749
0.581079
0.256973
-0.0307158
-0.278849
-0.49413
-0.681057
-0.855134
-1.01932
-1.18252
-1.33662
-1.49154
-1.63293
-1.77673
-1.90105
-2.02254
-2.10884
-2.19094
-2.23053
-2.27341
-2.26163
-2.21518
-2.0187
-0.134633
-2.0955
-4.42025
-6.32239
-7.8975
-9.19673
-10.2462
-11.0722
-11.7069
-12.1859
-12.5486
-12.8413
-13.0993
-13.3561
-13.6391
-13.97
-14.3631
-14.8236
-15.345
-15.9066
-16.4693
-16.9686
-17.3077
-17.36
-16.9757
-15.9809
-14.1585
-11.3073
-7.29627
-2.14995
3.91122
10.2261
16.4443
22.3399
28.2209
34.7547
41.7892
47.4848
52.6087
55.6039
55.7933
53.6714
48.7205
40.6695
29.6345
16.0437
2.35513
-21.463
-26.9582
-33.8087
-47.8075
-49.3037
-46.1515
-41.911
-21.902
-20.6719
-11.5479
8.38731
19.8182
31.7569
40.9744
46.1047
52.122
51.3261
55.476
55.9493
56.7355
51.7486
44.914
35.4662
31.9941
28.8097
13.5997
-12.4433
-39.7559
-57.387
-133.266
-204.915
-229.087
-232.582
-246.4
-257.523
-238.854
-201.975
-172.923
-130.338
-82.0556
-32.7175
1.92212
30.7973
50.5495
70.3621
98.0414
131.345
153.851
163.994
163.152
161.157
155.407
146.705
136.131
124.208
111.699
99.267
87.4321
76.5928
67.0673
59.0899
52.8004
48.2859
45.5679
45.1504
47.2579
50.4407
52.8186
54.7736
55.8109
55.8749
54.6741
52.8716
50.7315
47.9935
44.7958
41.3017
37.6222
33.909
30.3281
26.9792
23.9164
21.1538
18.687
16.4942
14.5517
12.8469
11.3631
10.0756
8.96272
8.00828
7.19853
6.51861
5.94726
5.46691
5.06792
4.73796
4.4638
4.23555
4.04589
3.88397
3.73588
3.58732
3.42478
3.23948
3.02403
2.7699
2.46969
2.12482
1.74552
1.35091
0.960121
0.588894
0.244816
-0.0675098
-0.350352
-0.606004
-0.843833
-1.06764
-1.28348
-1.48889
-1.6887
-1.87696
-2.05986
-2.22616
-2.38126
-2.51057
-2.62391
-2.71125
-2.77895
-2.83225
-2.83362
-2.77155
-0.00758351
-1.65518
-3.97089
-5.87824
-7.43453
-8.70017
-9.7112
-10.4977
-11.0942
-11.5332
-11.8471
-12.0721
-12.241
-12.3815
-12.5188
-12.6746
-12.8653
-13.0997
-13.3759
-13.6765
-13.9631
-14.165
-14.1845
-13.8746
-13.0683
-11.6003
-9.19889
-5.51582
-0.333902
6.43617
14.5744
22.5889
30.5071
37.4736
43.5005
49.0337
53.9467
58.4668
61.7037
62.0421
59.0866
53.6435
45.1454
33.3837
16.3911
-5.17569
-17.4147
-24.761
-39.181
-39.4696
-36.8531
-24.3928
-9.06048
12.6218
10.3803
40.6122
63.4459
92.0151
118.271
140.083
159.367
172.298
179.777
186.125
187.819
195.451
200.537
199.018
193.03
181.622
162.109
141.122
110.672
88.9649
69.2981
45.6858
27.2633
-12.817
-48.9122
-77.807
-85.1122
-95.9264
-135.485
-192.425
-233.98
-257.468
-232.181
-207.592
-171.018
-123.837
-79.4143
-27.4538
5.46729
30.2799
51.3225
79.2225
112.219
133.709
145.537
148.01
148.316
144.516
137.701
128.75
118.364
107.264
96.038
85.1932
75.1609
66.2847
58.7869
52.7466
48.5125
47.7182
48.5942
50.7827
53.166
55.0099
55.3308
54.0626
51.6707
49.0477
45.9329
42.5113
38.8816
35.1823
31.6362
28.3486
25.3616
22.6826
20.2953
18.1691
16.2759
14.6061
13.1472
11.8685
10.7435
9.75588
8.89996
8.16834
7.54234
6.9999
6.53155
6.13288
5.79264
5.49811
5.24024
5.01254
4.7954
4.57329
4.3365
4.08188
3.80498
3.4996
3.15952
2.78388
2.3791
1.95919
1.53975
1.13423
0.750286
0.392537
0.0615199
-0.243629
-0.528202
-0.795913
-1.05122
-1.29442
-1.52824
-1.75034
-1.96223
-2.15787
-2.33742
-2.4956
-2.63214
-2.75131
-2.84092
-2.93287
-2.96554
-2.98989
0.217902
-0.749811
-3.07834
-5.00724
-6.58039
-7.84815
-8.8462
-9.61014
-10.1757
-10.576
-10.84
-10.9964
-11.0752
-11.0978
-11.0863
-11.0593
-11.0324
-11.015
-11.0057
-10.9879
-10.9278
-10.7576
-10.4716
-9.87145
-8.77672
-7.04124
-4.49667
-0.673781
4.63497
11.5501
19.8313
28.9306
37.7764
45.366
51.3721
56.2657
60.2769
63.6177
65.3757
64.1091
59.2135
51.0943
39.314
23.743
1.51499
-12.3841
-19.1628
-32.6934
-34.2094
-27.9847
-22.9571
-4.6763
24.6272
47.8762
98.88
132.818
166.048
176.592
185.635
191.343
195.12
200.641
205.894
225.757
242.18
246.561
276.696
292.529
308.396
318.131
297.642
291.777
271.01
238.106
200.177
157.223
100.979
65.1893
45.3755
-20.5306
-32.6015
-37.7303
-42.294
-43.3843
-53.1532
-87.0196
-166.475
-217.439
-234.567
-230.856
-209.191
-176.8
-128.758
-100.674
-38.7373
-6.5802
17.9573
40.9682
68.5195
100.689
121.702
134.27
139.748
142.127
140.382
135.614
128.319
119.137
108.684
97.6014
86.5229
76.0228
66.5896
58.3384
52.2198
49.3281
48.4263
48.7271
50.4677
51.5943
50.3597
48.081
45.0237
42.011
38.7665
35.3269
32.067
29.0698
26.3338
23.866
21.6508
19.6597
17.8643
16.268
14.8783
13.6458
12.5369
11.5382
10.6524
9.88859
9.23052
8.64454
8.1198
7.66133
7.26459
6.91274
6.59242
6.29825
6.01674
5.72945
5.42564
5.10473
4.76723
4.40932
4.02527
3.61298
3.1767
2.72796
2.27822
1.83945
1.41975
1.02316
0.651288
0.304294
-0.0208739
-0.327295
-0.618309
-0.895065
-1.15919
-1.4102
-1.64785
-1.86794
-2.06873
-2.24931
-2.40587
-2.54815
-2.65743
-2.77557
-2.82974
-2.90602
0.361639
-0.123109
-1.95568
-3.91535
-5.53289
-6.83828
-7.85728
-8.62753
-9.18614
-9.56767
-9.80044
-9.90883
-9.91781
-9.84894
-9.71873
-9.54366
-9.33789
-9.11048
-8.86065
-8.57385
-8.22351
-7.90115
-7.62316
-7.04861
-6.0572
-4.4933
-2.06
1.50494
6.51916
13.163
21.3357
30.4868
39.5899
47.4657
53.4503
57.7971
61.1073
63.7201
64.8987
63.176
57.6826
48.5748
35.3275
13.3399
-0.949456
-8.63103
-21.7935
-28.7695
-26.1247
-17.5292
21.4061
31.4274
79.1809
109.72
146.747
162.859
164.899
162.861
156.971
149.141
141.587
135.37
133.165
133.809
135.727
150.506
147.408
176.753
199.065
228.614
289.323
315.762
336.865
324.006
313.793
283.852
234.03
176.952
102.582
64.9585
0.330733
-21.1054
-22.2934
-15.3548
-9.09683
-11.7959
-37.4727
-50.0799
-122.094
-174.046
-211.767
-223.993
-217.704
-197.132
-166.13
-127.88
-91.8057
-45.4453
-11.9948
9.75976
35.2412
64.4549
95.5702
117.288
130.194
139.729
144.573
145.198
141.857
134.866
124.772
112.448
99.0261
85.6445
73.1758
62.0391
52.9248
47.5186
44.2845
42.9734
43.6122
43.5668
41.7617
39.4656
36.8593
34.0004
31.3458
29.0063
26.753
24.664
22.7433
20.9768
19.3409
17.8562
16.5997
15.4612
14.3952
13.4001
12.4903
11.7027
11.0407
10.434
9.86465
9.35329
8.91002
8.50937
8.13014
7.76883
7.42292
7.07326
6.70442
6.31623
5.91487
5.5011
5.06871
4.61262
4.13569
3.64777
3.16122
2.68661
2.23041
1.79594
1.38479
0.997515
0.632182
0.286552
-0.0418551
-0.353757
-0.649107
-0.927952
-1.19068
-1.43429
-1.65592
-1.85675
-2.03257
-2.19451
-2.32208
-2.46077
-2.53093
-2.6404
0.553827
0.852543
-1.13005
-2.863
-4.4695
-5.83423
-6.89565
-7.69397
-8.26744
-8.65102
-8.87441
-8.96118
-8.93359
-8.81195
-8.61153
-8.34826
-8.03688
-7.69004
-7.31623
-6.91878
-6.57277
-6.32355
-5.92592
-5.23868
-4.21884
-2.75
-0.612727
2.48494
6.8294
12.6193
19.8603
28.1788
36.706
44.2976
50.1521
54.3242
57.4656
60.0142
61.4525
60.4132
55.7158
46.8818
33.4678
13.3339
4.27792
-6.28685
-16.994
-19.9912
-15.815
13.3271
36.8881
72.058
101.407
127.605
142.973
147.873
143.005
135.324
125.856
116.451
109.093
104.421
100.758
99.2838
100.456
104.572
107.593
110.89
129.362
150.586
172.54
205.711
240.367
295.746
319.852
327.474
315.657
283.83
220.204
136.598
62.3412
8.311
-20.2603
-28.8864
-24.8698
-15.0814
-9.15696
-13.8928
-27.4438
-43.0177
-97.5722
-147.314
-187.334
-208.184
-210.146
-197.489
-176.212
-147.065
-116.811
-85.5116
-46.1179
-14.556
5.24329
35.0937
69.7088
100.007
122.516
139.587
152.051
158.937
159.537
153.649
142.098
126.68
109.384
91.8237
75.1292
60.2703
48.0336
40.2176
35.0446
32.9397
33.186
33.0654
32.1311
30.7928
29.2136
27.727
26.2695
24.8205
23.3909
21.9936
20.621
19.3037
18.2872
17.3154
16.3126
15.3341
14.4057
13.5958
12.9856
12.4018
11.7952
11.2253
10.745
10.3177
9.88561
9.45623
9.0449
8.63741
8.20431
7.74409
7.27039
6.79297
6.30659
5.7998
5.27256
4.73405
4.19945
3.68144
3.18521
2.71096
2.25867
1.82859
1.41959
1.03056
0.660282
0.308978
-0.022368
-0.332803
-0.621864
-0.888752
-1.13238
-1.35427
-1.55035
-1.7318
-1.87782
-2.03536
-2.11899
-2.2527
0.571862
2.02276
0.0204745
-2.11736
-3.76952
-5.03109
-6.08595
-6.91829
-7.51776
-7.9172
-8.1481
-8.23601
-8.20158
-8.06392
-7.84068
-7.54752
-7.20209
-6.82415
-6.43706
-6.06329
-5.71816
-5.31752
-4.78757
-4.03626
-3.0455
-1.73126
0.0830474
2.61852
6.09891
10.7212
16.5778
23.4695
30.7494
37.463
42.8724
46.962
50.3119
53.3567
55.6998
56.14
53.3883
46.5627
35.1023
18.9409
10.5809
-0.00784004
-9.12617
-10.4744
0.41725
29.766
47.9838
77.1791
104.155
122.354
130.499
130.98
125.998
117.761
111.47
104.564
97.8703
90.2585
82.1915
74.0724
67.0362
62.997
69.1532
77.4319
93.5371
112.575
132.105
147.656
181.741
221.868
256.449
291.509
320.203
315.397
256.339
201.968
134.497
70.5738
25.3324
-3.69388
-21.5916
-29.156
-27.7744
-24.0026
-23.2816
-25.5408
-26.8489
-37.8694
-88.0047
-131.832
-167.506
-187.626
-193.542
-188.5
-175.55
-157.835
-133.49
-108.002
-77.5157
-43.8577
-13.9129
9.93654
47.8068
87.2224
118.925
145.625
166.315
178.623
180.21
172.157
157.129
137.187
113.994
90.4379
69.0434
50.8
36.6199
27.5159
21.9384
20.0253
21.204
22.8298
23.5702
23.8048
23.9198
23.8079
23.3741
22.727
21.9283
20.9748
20.0461
19.1261
18.188
17.2566
16.3389
15.5068
15.0152
14.5709
13.9203
13.2702
12.7593
12.3709
11.9009
11.3886
10.8994
10.4466
9.96098
9.42461
8.86527
8.31112
7.7657
7.20397
6.61668
6.01545
5.41854
4.84471
4.30237
3.78522
3.2877
2.8089
2.34884
1.90857
1.48874
1.09108
0.718867
0.373204
0.0545786
-0.238358
-0.506841
-0.752822
-0.972045
-1.17503
-1.34216
-1.5184
-1.61657
-1.77311
0.477851
1.81339
0.490411
-1.30407
-3.03043
-4.5392
-5.65146
-6.44609
-7.0548
-7.44762
-7.68899
-7.79039
-7.76795
-7.63955
-7.42392
-7.13748
-6.79875
-6.43162
-6.073
-5.77686
-5.40446
-4.8692
-4.28668
-3.51675
-2.57143
-1.39263
0.120508
2.10625
4.72196
8.15125
12.5372
17.8223
23.5801
29.0788
33.7248
37.5209
41.0323
44.77
48.5783
51.0808
50.9221
47.091
39.0744
26.3255
17.6649
8.65524
0.569028
-1.24874
7.46941
31.9285
47.9881
71.8039
93.2472
107.269
109.873
112.92
112.117
110.735
108.351
104.986
100.329
93.7857
84.5773
71.7817
56.5426
39.568
25.4401
19.9375
25.1765
44.2199
72.5481
112.118
148.599
179.425
219.955
258.54
293.555
327.539
329.915
229.759
166.266
99.9455
52.3439
22.9782
3.67464
-11.1118
-21.4943
-27.5606
-29.4532
-29.4132
-29.3465
-29.9748
-31.1509
-42.1986
-88.37
-121.887
-148.876
-165.583
-174.909
-177.287
-172.923
-161.945
-148.752
-129.047
-101.576
-71.8442
-35.4573
-5.82931
34.3331
84.9204
126.239
163.74
191.092
202.694
200.239
188.002
166.404
137.976
107.31
78.2893
53.8321
34.312
20.2483
11.7247
7.21994
7.09732
9.69337
13.1024
16.2313
19.1975
20.9988
22.0573
22.65
22.6864
22.0598
21.3263
20.6317
19.9318
19.1803
18.3559
17.622
16.9482
16.1867
15.4342
14.8746
14.7136
14.2026
13.5683
12.9661
12.497
12.0023
11.3888
10.7246
10.0734
9.46837
8.85828
8.20332
7.52244
6.84423
6.19882
5.60443
5.04385
4.49652
3.96019
3.43795
2.93521
2.45523
2.00142
1.58322
1.20053
0.848922
0.5246
0.225807
-0.0492624
-0.296582
-0.525176
-0.71725
-0.913439
-1.03574
-1.22251
0.379253
1.44187
0.357234
-1.32824
-2.92326
-4.26624
-5.38939
-6.29554
-6.93828
-7.33969
-7.5801
-7.68181
-7.67166
-7.5646
-7.37393
-7.11349
-6.79855
-6.44787
-6.08199
-5.72083
-5.37913
-5.11395
-4.6089
-3.6735
-2.79108
-1.77238
-0.536257
0.997672
2.91332
5.34375
8.44792
12.2662
16.5465
20.812
24.6482
28.0511
31.4727
35.0015
37.2558
40.7814
43.2049
43.0827
39.6914
32.6698
24.9417
17.3339
10.636
7.38648
12.0284
26.6231
42.2251
59.053
75.6803
88.1168
98.0213
101.715
103.013
102.924
104.063
105.275
105.259
102.326
97.1571
85.0135
70.8395
50.3182
25.809
10.1288
2.75406
8.96009
24.5819
40.3465
80.9515
149.434
198.063
234.604
282.231
328.043
331.974
281.689
193.172
120.022
64.4433
25.8177
2.49743
-9.52716
-15.6036
-20.9074
-25.277
-26.2071
-27.3456
-29.0143
-30.5297
-30.6369
-33.6249
-57.1966
-86.0725
-111.864
-131.721
-147.504
-159.692
-167.656
-171.11
-170.403
-161.964
-148.072
-124.326
-83.5408
-60.8225
-14.0134
40.2567
99.1555
154.368
198.52
221.573
226.147
216.776
193.261
160.255
123.154
87.0268
56.4328
32.2665
14.6971
3.37332
-2.34872
-6.51857
-4.42183
-1.97275
6.05916
11.4717
15.3987
19.0186
21.5157
22.7789
23.3626
23.5552
23.5447
23.3238
22.7378
21.638
20.5499
19.7182
18.8957
18.0819
17.4865
16.7361
15.913
15.1458
14.6629
14.3252
13.6271
12.8323
12.0537
11.3893
10.774
10.0494
9.2706
8.49071
7.7545
7.10299
6.50886
5.9095
5.3044
4.7058
4.12691
3.5749
3.05353
2.58409
2.16297
1.77513
1.41373
1.07748
0.766165
0.484402
0.224084
0.00321212
-0.217223
-0.359939
-0.584051
0.261218
0.461817
-0.653053
-2.17258
-3.58687
-4.79975
-5.79242
-6.55689
-7.14038
-7.54818
-7.80569
-7.9423
-7.96727
-7.90396
-7.75942
-7.54475
-7.27241
-6.95247
-6.59334
-6.20763
-5.8052
-5.3948
-4.98378
-4.67885
-4.0671
-2.89559
-1.91464
-0.863047
0.418562
2.05612
4.19951
6.89082
9.9045
11.8495
14.4891
16.8535
19.6753
23.6267
31.8066
35.9979
39.2937
40.5269
38.9201
34.6881
29.8194
24.087
18.1606
15.7782
15.6287
22.9239
33.5248
46.6667
56.3593
69.5122
73.0847
79.8448
83.5076
86.8284
90.2505
94.0855
96.2972
96.0147
93.713
84.4853
69.9891
56.4545
26.7959
9.47172
-1.43374
-0.292307
17.3412
27.5231
48.5057
94.5093
149.731
214.529
271.992
334.529
378.878
307.047
185.799
125.491
77.4435
38.6832
8.68483
-10.6117
-20.0384
-22.9565
-23.5864
-23.8739
-24.0269
-24.8948
-26.9202
-27.931
-27.209
-30.4606
-42.6973
-62.5922
-83.3377
-101.008
-117.949
-135.047
-150.089
-164.448
-176.313
-183.391
-179.916
-168.15
-145.77
-92.4867
-64.6511
-17.3575
71.5451
140.973
201.634
237.084
250.676
243.285
215.657
177.715
135.295
94.2537
58.3393
30.6099
10.8872
-0.787336
-10.5972
-16.7305
-16.7328
-12.6409
-6.74169
-0.950381
4.99459
12.7139
16.5936
20.1897
22.6381
24.1281
25.2215
25.6123
25.4636
25.175
24.7424
24.0438
22.9801
21.4472
20.4115
19.4898
18.5424
17.6539
16.894
15.9936
15.0531
14.1283
13.3814
12.9148
12.1139
11.2155
10.3193
9.47595
8.76184
8.17852
7.53214
6.84582
6.15597
5.48777
4.85297
4.25192
3.72845
3.27419
2.84771
2.44154
2.05869
1.70255
1.37891
1.0797
0.827485
0.579132
0.414365
0.156379
0.135739
-0.437991
-2.0806
-3.62813
-4.88864
-5.92346
-6.75844
-7.4122
-7.90451
-8.25055
-8.46232
-8.53895
-8.56697
-8.54639
-8.42926
-8.22616
-7.98085
-7.69191
-7.36561
-7.00261
-6.60808
-6.19071
-5.77653
-5.39618
-5.08841
-4.88797
-4.60806
-3.67968
-2.74188
-1.93063
-0.926586
0.650617
2.41219
6.17619
9.47047
11.9892
14.6281
18.0808
20.8151
26.5285
31.3405
34.4715
35.3424
33.0242
29.0006
25.8608
22.0126
19.2013
18.8038
20.4397
26.1419
33.7795
41.2367
47.603
57.4501
57.7656
59.8035
63.7275
67.5435
72.1326
73.5473
75.2675
71.5837
59.9655
51.4085
38.5912
16.9997
1.33289
-9.23608
-8.93419
7.9468
19.0285
42.3401
90.9739
143.516
191.255
254.785
336.112
384.933
319.486
178.058
115.35
68.3807
31.7668
6.78529
-7.95531
-17.1016
-21.0137
-21.6785
-22.0964
-22.4776
-22.7945
-23.5165
-24.77
-25.6125
-25.6492
-27.1797
-34.0331
-47.0635
-62.1573
-76.925
-92.8018
-109.935
-128.699
-149.777
-171.252
-191.467
-204.496
-202.699
-186.371
-154.085
-90.2566
-53.3604
33.1677
126.313
203.796
251.202
273.052
266.897
234.478
189.43
143.058
98.5618
59.5864
30.0509
8.8378
-1.27828
-13.6004
-20.5124
-22.9987
-21.5796
-17.5597
-11.2721
-4.84643
0.0591421
5.31515
11.7396
15.4752
19.1436
22.0874
23.9725
25.3165
26.1772
26.3533
26.1495
25.5783
24.9646
24.3107
23.37
21.9312
20.3318
19.1855
18.1439
17.1072
16.0897
15.2223
14.2115
13.1733
12.1715
11.2291
10.4373
10.0078
9.31437
8.53333
7.74396
6.98123
6.26002
5.57252
4.99667
4.53517
4.06979
3.60951
3.17043
2.76163
2.39017
2.04512
1.76113
1.48215
1.29046
0.998297
-0.174949
-2.95023
-4.15278
-5.28882
-6.31505
-7.18612
-7.90579
-8.48478
-8.93718
-9.27654
-9.51186
-9.65235
-9.69491
-9.65904
-9.58492
-9.5352
-9.39329
-9.19355
-8.94233
-8.60971
-8.27857
-7.93352
-7.58303
-7.21181
-6.75768
-6.49543
-6.64997
-6.79232
-6.58587
-5.50085
-4.71666
-4.02655
-3.00267
-1.97696
-0.749698
1.49879
4.20484
7.30764
10.8158
14.389
18.7401
22.4277
25.6408
26.9297
24.8056
22.6561
19.946
17.4746
16.2947
16.5664
18.2266
22.0159
26.4943
26.8324
31.6796
36.4992
41.8348
43.6186
47.2854
49.1278
51.0438
53.3387
52.6992
45.2792
38.0139
25.1233
3.83179
-7.42858
-13.5287
-6.66022
3.79309
17.8246
43.8837
100.361
141.986
191.38
269.018
367.062
404.202
304.619
159.064
102.98
59.1257
22.6143
-2.2273
-14.3447
-18.0933
-18.7494
-19.8262
-19.6853
-19.703
-20.2802
-21.15
-22.1159
-23.2196
-24.0863
-24.2117
-24.7751
-28.5289
-36.9592
-47.5389
-58.5453
-71.5782
-88.3051
-108.66
-132.438
-161.797
-192.228
-218.556
-232.484
-225.938
-198.066
-144.092
-64.4328
-16.3075
126.368
208.893
266.383
293.595
285.485
248.079
195.971
146.325
100.046
60.4232
30.9459
9.9733
0.444914
-11.7428
-17.305
-21.2726
-22.9728
-22.0178
-19.3048
-15.237
-10.1484
-4.9106
-0.813953
2.72767
7.48214
10.4697
13.3934
16.4647
19.2208
21.3493
23.2626
24.467
25.1117
25.1716
24.5947
23.7695
22.8662
21.9182
20.9318
19.67
18.037
16.8069
15.692
14.6333
13.6262
12.676
11.9272
11.0758
10.1971
9.32829
8.48863
7.69425
6.9333
6.3073
5.91628
5.40887
4.88541
4.38528
3.92209
3.50272
3.10924
2.80272
2.49188
2.26855
1.93828
-0.664971
-6.16979
-7.93463
-8.67054
-9.2292
-9.7204
-10.1568
-10.5376
-10.8605
-11.1236
-11.3251
-11.4587
-11.5051
-11.4961
-11.4439
-11.3328
-11.2195
-11.0936
-10.98
-10.9963
-10.9244
-10.8309
-10.7146
-10.5767
-10.4066
-10.2646
-10.1344
-10.5966
-11.3236
-11.6206
-10.8496
-10.0806
-9.19731
-8.60436
-8.11188
-7.07569
-5.254
-2.22598
2.66526
7.78863
12.3284
16.2109
18.613
19.3635
19.9968
18.116
14.9738
11.7806
9.33733
7.92612
7.97706
8.56412
9.56103
10.8435
13.0872
13.2543
16.0086
20.7122
23.5294
24.9129
25.8444
26.2032
25.0883
17.0185
12.5536
3.05365
-4.82201
-13.3965
-15.1121
-3.90073
7.2757
30.3351
63.2478
102.197
145.44
207.807
306.565
405.318
397.05
253.625
120.101
75.812
35.647
6.94247
-7.34153
-14.1055
-15.3387
-17.0696
-17.6948
-17.4233
-17.2113
-17.5793
-18.5887
-19.7947
-20.8654
-21.8461
-22.5212
-22.5809
-22.7738
-24.8666
-30.1725
-37.1805
-45.1175
-54.9029
-69.1124
-89.3722
-116.717
-150.384
-190.155
-228.813
-256.6
-261.095
-234.447
-177.447
-85.6371
-29.7404
112.226
217
282.884
311.601
298.89
255.644
198.78
146.411
100.267
62.1485
33.2036
14.1152
2.82699
-6.65523
-11.5945
-14.5606
-16.5829
-17.7179
-18.3505
-17.4644
-15.8759
-13.905
-11.1878
-8.08597
-5.11447
-2.86142
0.0536542
3.55765
5.92328
8.12441
10.468
13.1127
15.3915
17.4769
19.2366
20.6088
21.3829
21.4688
21.0391
20.3035
19.4457
18.534
17.5342
16.5407
15.4677
14.0512
13.0151
12.0894
11.2001
10.3329
9.49988
8.70738
7.97467
7.37416
6.7609
6.17115
5.62175
5.1181
4.66309
4.22892
3.93384
3.58848
3.32893
2.95864
-1.02683
-7.54476
-9.72631
-10.6784
-11.2668
-11.7104
-12.0811
-12.4049
-12.6908
-12.9427
-13.1638
-13.3614
-13.5612
-13.7374
-13.8828
-14.0022
-14.1052
-14.1943
-14.2318
-14.2783
-14.4337
-14.6532
-14.9393
-15.2717
-15.6127
-16.0738
-16.6417
-17.3503
-18.3894
-19.6634
-20.609
-20.6916
-20.4812
-19.556
-17.5177
-15.6052
-13.4229
-10.6407
-7.75962
-3.50863
1.22794
5.81942
9.42971
12.0998
12.5212
11.2283
9.17658
6.54425
2.99359
-0.0904121
-2.3288
-4.01555
-4.49854
-3.93985
-2.59227
0.0696985
2.43976
3.89657
5.79403
7.66136
8.5984
8.16744
6.82532
0.0622041
-3.18985
-7.74005
-15.4312
-17.2392
-9.97476
-0.70946
10.6957
48.4876
80.9309
120.702
177.488
267.787
383.437
432.863
334.431
166.595
80.7861
46.9666
12.496
-8.3754
-13.8288
-13.9026
-15.8335
-15.6451
-14.9431
-14.5269
-14.6652
-15.2396
-16.1945
-17.455
-18.7372
-19.7928
-20.5461
-20.9505
-21.1321
-21.5763
-23.0815
-26.4563
-31.2685
-36.9689
-44.146
-55.656
-74.7581
-103.826
-143.664
-190.509
-239.086
-276.561
-288.385
-261.641
-201.588
-97.2514
-31.875
111.711
231.015
299.181
323.688
303.938
254.825
195.738
142.373
98.7225
63.367
36.3592
18.3808
5.96621
0.798417
-6.00456
-8.77839
-10.462
-10.8172
-11.3244
-11.5535
-11.5371
-11.4771
-11.6685
-11.2908
-10.7756
-9.86191
-8.91052
-7.81857
-6.03201
-4.92165
-2.6891
-0.19935
1.88779
4.19684
6.29153
8.40687
10.4995
12.154
13.5781
14.8162
15.7063
16.2578
16.3112
15.9377
15.2956
14.5937
13.8708
13.115
12.3254
11.5174
10.7474
9.89129
8.87303
8.12757
7.49443
6.92709
6.40769
5.93162
5.4764
5.09957
4.6984
4.40314
4.00286
-1.4126
-8.58209
-10.9494
-12.038
-12.7097
-13.1949
-13.5843
-13.9209
-14.2245
-14.5075
-14.7806
-15.0539
-15.339
-15.6471
-15.986
-16.3681
-16.8103
-17.3421
-18.0346
-18.7971
-19.6453
-20.6066
-21.7217
-22.7474
-23.6285
-24.6592
-25.8156
-27.1676
-28.8125
-30.779
-32.9737
-35.1112
-36.3266
-37.0937
-36.4047
-34.7065
-32.5033
-30.0177
-26.7906
-22.2029
-16.0322
-9.47245
-3.67697
0.601462
2.64847
2.93302
2.15511
0.359855
-1.74787
-4.47382
-8.06069
-10.8603
-12.0814
-10.7206
-9.64602
-7.21058
-4.43502
-2.01187
-0.0219831
1.31581
1.87377
1.21116
-0.454112
-3.64354
-6.78006
-10.1788
-11.4836
-5.48885
0.118743
22.4662
46.1134
72.4364
111.13
163.956
239.903
358.511
451.527
388.285
213.125
80.5949
45.431
12.9876
-6.29586
-11.2011
-11.2614
-13.0959
-13.9132
-13.874
-13.2005
-12.7075
-12.8397
-13.5169
-14.4791
-15.5916
-16.7639
-17.8476
-18.6884
-19.3024
-19.8485
-20.4519
-21.2923
-22.6451
-24.8861
-28.3411
-32.5793
-38.1628
-47.4429
-66.0875
-98.0083
-144.355
-200.598
-255.758
-298.187
-310.16
-274.047
-203.553
-95.0919
-25.3382
130.018
253.092
316.604
329.435
298.341
244.636
185.803
133.965
94.2846
62.5519
37.9819
21.4159
10.7431
3.49273
-0.685391
-3.57591
-4.787
-5.84087
-6.60189
-6.97894
-7.01547
-6.58301
-6.741
-6.95434
-7.14819
-7.38396
-7.66473
-8.06776
-8.69373
-8.52567
-8.24792
-7.78479
-7.02739
-6.05504
-4.89727
-2.54532
-1.12586
0.525945
2.33194
4.25111
5.90319
7.3709
8.56533
9.47704
10.1575
10.567
10.7141
10.6943
10.5454
10.3255
9.92883
9.39007
8.84969
8.33402
7.85167
7.3957
6.96646
6.57827
6.11479
5.6972
5.41347
5.02828
-1.79257
-9.21622
-11.7349
-12.9507
-13.7107
-14.256
-14.69
-15.0629
-15.4051
-15.739
-16.082
-16.4486
-16.8584
-17.3312
-17.8939
-18.5837
-19.4268
-20.4405
-21.7021
-23.0029
-24.2718
-25.6887
-27.3589
-29.108
-30.9852
-33.0647
-35.3866
-38.025
-41.2497
-44.6752
-48.5503
-52.8314
-57.494
-61.1718
-63.3782
-64.6568
-64.332
-62.3519
-58.8501
-53.4634
-44.5683
-34.828
-25.749
-18.1874
-12.6547
-9.21293
-7.51176
-7.37228
-8.01435
-10.2645
-11.848
-12.8622
-12.8317
-10.8511
-9.62428
-7.31922
-4.27604
-1.73711
0.335275
1.66731
2.22585
1.86493
0.983403
-0.550634
-1.46297
-1.6863
0.281988
13.2328
35.2789
46.65
71.2227
108.958
162.22
237.527
340.454
443.998
423.915
253.362
91.0748
47.9835
14.0225
-7.38922
-10.1352
-10.881
-12.7779
-12.8912
-12.6624
-11.8495
-11.0046
-10.7773
-11.235
-12.0937
-13.0969
-14.1173
-15.0811
-15.9758
-16.8582
-17.7634
-18.6646
-19.5889
-20.6277
-21.821
-23.1747
-24.7937
-27.1824
-30.3092
-34.6369
-42.7
-62.3016
-99.5106
-154.979
-220.818
-280.74
-320.001
-320.415
-270.076
-188.614
-79.6648
-10.6402
162.146
278.289
330.24
326.292
284.026
227.159
171.493
123.604
88.1427
59.9735
38.8456
23.5211
13.6578
6.87804
3.13039
0.626531
-1.02823
-2.05292
-2.64453
-2.74221
-2.47853
-2.75605
-3.14412
-3.53721
-3.91297
-4.29979
-4.58514
-4.57443
-4.94014
-5.33086
-5.65298
-5.86528
-6.06965
-6.1247
-6.35859
-6.05261
-5.50379
-5.02944
-3.81472
-2.76732
-1.69188
-0.626388
0.480193
1.56408
2.58092
3.52362
4.30213
4.96118
5.52984
5.94022
6.18437
6.31373
6.36215
6.35341
6.30562
6.2367
6.18002
6.09792
5.97269
5.90197
5.7282
-2.04113
-9.51731
-12.151
-13.4708
-14.3169
-14.9345
-15.4301
-15.8623
-16.2692
-16.682
-17.1302
-17.6382
-18.2463
-18.9565
-19.8882
-20.9988
-22.213
-23.6693
-25.4549
-27.4199
-29.6274
-32.2253
-35.016
-38.0074
-41.2101
-44.6163
-48.2213
-52.0126
-55.8094
-60.2687
-65.3636
-71.1907
-78.0983
-84.2452
-90.0356
-94.5385
-96.9147
-96.9842
-94.5634
-89.8282
-81.565
-73.6019
-64.7954
-55.4151
-46.4129
-38.4156
-31.6643
-26.4677
-22.6043
-20.6528
-18.0648
-15.358
-12.0151
-10.0001
-7.2622
-3.51459
-0.572263
2.17002
4.45118
6.16155
7.31322
7.78077
8.11408
8.95314
9.46372
14.7036
30.7444
47.0365
54.029
76.6528
116.662
165.333
231.717
342.015
451.159
433.632
264.52
94.7521
47.1998
15.4735
-5.88343
-8.4166
-10.8974
-11.4797
-11.022
-11.2042
-11.1513
-10.4012
-9.61933
-9.52317
-10.0976
-10.9684
-11.8842
-12.7485
-13.473
-14.1669
-15.1033
-16.2847
-17.5465
-18.8221
-20.1816
-21.6051
-23.0395
-24.4797
-25.8174
-27.1809
-29.2777
-32.3757
-40.4049
-63.587
-109.933
-177.243
-250.776
-309.13
-335.744
-315.943
-251.335
-164.907
-52.9565
12.7536
205.994
297.035
334.292
314.148
262.78
205.63
155.156
112.714
80.8681
56.5611
38.1741
25.1382
15.8692
10.1823
6.27108
3.84489
2.63453
1.65928
1.58238
1.33773
0.95014
0.5605
0.143002
-0.354916
-0.696441
-0.905657
-0.999272
-1.53953
-2.06576
-2.56882
-2.99169
-3.31477
-3.41573
-3.11747
-3.13091
-3.16061
-3.00723
-2.80672
-2.42756
-2.04842
-1.79311
-1.60299
-1.03384
-0.393229
0.25776
0.869946
1.45281
2.01282
2.49746
2.90566
3.26751
3.59997
3.91615
4.20953
4.47
4.71195
4.93111
5.13171
5.35143
5.53311
-2.28708
-9.5552
-12.2078
-13.6261
-14.5782
-15.2997
-15.8988
-16.4401
-16.9737
-17.5547
-18.2418
-19.1075
-20.1014
-21.2799
-22.7933
-24.5972
-26.6807
-29.187
-32.1492
-35.5366
-39.4067
-43.6735
-48.2806
-53.1117
-58.0623
-63.032
-67.9488
-72.6224
-77.1292
-81.6879
-86.4436
-91.3895
-95.8838
-101.145
-107.081
-111.587
-114.572
-115.726
-114.919
-112.584
-109.82
-105.75
-99.2944
-90.6998
-80.7667
-70.3518
-59.9107
-50.2106
-41.5846
-32.9515
-26.4475
-18.4139
-14.4844
-8.79011
-3.91661
0.765793
4.90319
8.45428
11.6385
14.1801
16.2783
18.3796
19.8722
22.7833
33.9158
46.7035
54.4111
62.4806
91.4332
127.957
179.376
244.371
330.993
416.043
444.901
265.295
93.0549
34.3258
10.6035
-6.95828
-8.85416
-9.96575
-11.1794
-10.8388
-10.5798
-10.5178
-9.96559
-8.91275
-8.20121
-8.36186
-9.10764
-9.97338
-10.7556
-11.3872
-11.8749
-12.4649
-13.468
-14.8673
-16.4597
-18.0931
-19.7914
-21.5385
-23.2522
-24.941
-26.5039
-27.6074
-27.9856
-28.6363
-30.7056
-40.5441
-71.9592
-131.956
-211.103
-286.147
-333.172
-338.416
-298.498
-214.586
-106.991
-41.9609
67.5791
233.713
304.035
325.028
293.418
237.003
182.995
138.489
101.756
72.9595
52.2852
36.862
25.7214
18.1855
13.2601
10.101
7.9152
6.77209
6.01103
5.47272
4.9317
4.46789
4.11694
3.91726
3.54657
2.93888
2.49048
1.74167
0.96507
0.387291
-0.0667869
-0.383425
-0.481294
-0.24501
-0.419753
-0.619612
-0.679095
-0.686936
-0.544884
-0.298896
0.0373952
0.60969
0.971004
1.32695
1.68851
2.03911
2.37414
2.66957
2.93499
3.17253
3.3913
3.58097
3.70653
3.91812
4.15162
4.3647
4.55449
4.72493
4.9393
5.18672
-2.17934
-9.14309
-11.9484
-13.5045
-14.607
-15.4939
-16.2906
-17.0871
-17.9775
-18.9924
-20.1925
-21.741
-23.5912
-25.8936
-28.7717
-32.2355
-36.3461
-41.1158
-46.5851
-52.7869
-59.8615
-67.1503
-74.5307
-81.8737
-88.9229
-95.4016
-101.211
-106.311
-109.75
-112.185
-113.949
-114.951
-115.98
-117.125
-117.285
-117.868
-118.039
-117.511
-115.994
-113.464
-110.485
-106.837
-101.817
-95.0158
-86.4932
-76.8848
-66.1336
-55.2985
-45.9014
-33.0267
-26.9546
-18.5616
-9.8497
-3.0791
3.34362
9.25477
14.4423
18.8804
23.2919
26.399
29.2768
35.3707
43.2467
52.384
57.4077
65.0381
81.9915
109.7
143.907
194.733
238.495
353.875
463.069
337.551
113.612
48.211
18.9573
7.20106
-7.83566
-8.53146
-10.7412
-11.5991
-11.1406
-9.9114
-9.2341
-9.13041
-8.61833
-7.68309
-7.19188
-7.54717
-8.32567
-9.06141
-9.61898
-9.9898
-10.3025
-10.8898
-11.9887
-13.5518
-15.4149
-17.3849
-19.4017
-21.4819
-23.5407
-25.5189
-27.4552
-29.1845
-29.8499
-28.7957
-27.7043
-29.8345
-45.2625
-91.0565
-167.072
-252.713
-317.871
-344.031
-324.337
-264.407
-166.82
-70.6302
-9.27942
138.343
243.515
298.524
304.079
265.3
209.152
160.692
122.349
90.8157
66.2289
47.8253
35.3081
26.4313
20.4832
16.6889
14.1977
12.704
11.7656
11.0672
10.2887
9.51843
9.00983
8.40247
7.70926
6.92712
6.16178
5.38304
4.76653
4.08282
3.50282
3.03578
2.66763
2.25481
1.86669
1.55936
1.35953
1.26457
1.32808
1.53843
1.90088
2.38892
2.59951
2.7938
2.99828
3.20486
3.40441
3.58618
3.74962
3.90136
4.04857
4.19111
4.40371
4.56023
4.67871
4.79305
4.90378
4.99775
5.09218
5.23663
-2.15177
-8.62918
-11.5054
-13.2643
-14.6128
-15.839
-17.0865
-18.4845
-20.1824
-22.2444
-24.841
-28.1257
-32.113
-36.8882
-42.5583
-49.2228
-57.0118
-65.3094
-74.2044
-83.8877
-95.2222
-105.109
-114.188
-122.555
-129.963
-136.135
-140.636
-143.175
-144.517
-144.296
-142.644
-139.683
-135.814
-131.277
-126.123
-120.718
-114.755
-108.47
-102.119
-94.5425
-87.8591
-82.2535
-76.0866
-70.0568
-63.0799
-55.5328
-47.9784
-35.1132
-29.7348
-18.1465
-10.2228
-2.27214
5.4944
12.6516
19.3316
25.5854
30.6715
35.4519
40.8767
46.7445
53.9908
56.2906
63.2705
69.3518
83.2391
101.346
126.908
162.592
205.226
278.928
300.082
394.696
401.702
365.412
181.671
30.6886
0.152214
-10.8299
-11.305
-10.8313
-10.5421
-11.1362
-10.5052
-9.16649
-8.63346
-8.49101
-7.74564
-6.74291
-6.40311
-6.9007
-7.64763
-8.18387
-8.4697
-8.58523
-8.78768
-9.44461
-10.6711
-12.3634
-14.4329
-16.6966
-18.9936
-21.3749
-23.8214
-26.0994
-28.2694
-30.6637
-32.4565
-31.8551
-28.7536
-26.5691
-31.7815
-59.1668
-124.048
-212.73
-292.568
-336.149
-336.187
-294.444
-218.151
-117.702
-38.0785
41.8291
182.016
246.985
281.705
274.381
232.749
181.072
139.412
106.958
80.2868
59.8083
44.9664
34.4937
27.4817
23.1492
20.7999
19.1531
18.036
17.2263
16.5054
15.7585
15.0875
14.3413
13.3823
12.1001
10.982
9.97474
8.89353
7.91406
7.11023
6.42529
5.78773
5.23041
4.72093
4.25668
3.8932
3.64814
3.55178
3.55403
3.65978
3.76233
3.8241
3.9016
3.99931
4.10834
4.21928
4.32466
4.42568
4.52525
4.62769
4.74848
4.93033
5.02025
5.0736
5.13395
5.21175
5.2967
5.41672
5.49546
-2.17538
-8.08794
-11.078
-13.1174
-15.0015
-17.0362
-19.4739
-22.4728
-26.2198
-30.7251
-36.1081
-42.7037
-49.9916
-57.914
-66.4717
-76.0711
-87.2968
-96.9752
-106.126
-115.105
-122.175
-129.789
-137.185
-144.181
-150.421
-155.58
-159.306
-161.396
-161.795
-160.376
-157.171
-152.325
-146.011
-138.377
-129.947
-120.61
-110.309
-97.9783
-87.2323
-75.0029
-58.156
-51.4261
-35.9153
-29.1124
-21.386
-14.1276
-6.22058
1.65632
7.84673
15.2879
21.8373
27.9643
33.9246
39.3288
44.8911
49.8747
54.9329
60.691
63.4092
66.9919
72.3812
78.4882
89.9637
100.363
121.335
143.244
182.4
204.477
272.661
343.33
474.182
253.518
-58.4121
-70.4023
-10.7916
-1.0396
-3.09634
-11.9038
-10.777
-10.2286
-10.8207
-10.9576
-9.60146
-8.0947
-7.78638
-7.72429
-6.90167
-5.9815
-5.83117
-6.38045
-6.9908
-7.26215
-7.26057
-7.17074
-7.33914
-8.10425
-9.48989
-11.3096
-13.5295
-16.0307
-18.5815
-21.2112
-24.0185
-26.6713
-29.0151
-31.7258
-34.6517
-35.6249
-32.6926
-27.5259
-26.9203
-40.042
-85.965
-170.541
-259.433
-318.833
-335.362
-312.34
-251.051
-161.241
-59.3238
-11.0857
112.639
187.522
236.786
254.999
239.275
198.974
154.179
119.413
92.2715
70.4657
54.1725
42.6705
35.0715
30.408
27.6199
25.8318
24.6098
23.7002
23.1298
22.6811
21.8592
20.8846
19.7693
18.4299
17.0521
15.7125
14.3228
12.8338
11.5931
10.5841
9.61284
8.66318
7.7808
7.10814
6.55414
6.11833
5.82752
5.66352
5.56251
5.43889
5.33654
5.27268
5.24221
5.23303
5.23579
5.24514
5.25984
5.27688
5.30234
5.34321
5.39259
5.41083
5.42717
5.45954
5.5221
5.62586
5.73461
5.82592
-1.79453
-7.83568
-10.8951
-13.7203
-16.9913
-21.0506
-26.1839
-32.236
-39.0935
-46.2591
-53.752
-63.2024
-71.3694
-79.2435
-86.3821
-93.381
-98.4057
-104.158
-110.112
-116.199
-121.798
-127.133
-132.077
-136.579
-140.534
-143.668
-145.675
-146.236
-145.349
-143.146
-139.353
-133.992
-127.223
-118.616
-109.68
-99.6876
-89.3957
-74.349
-64.9612
-51.2807
-29.8526
-16.497
-2.30074
9.58798
20.0864
28.9992
37.1222
44.1784
49.8775
55.1519
59.612
63.4946
67.1865
70.596
73.1184
75.4908
78.0635
81.0068
85.046
89.362
96.773
103.84
118.36
133.506
157.325
185.126
234.324
261.477
296.585
264.934
297.718
283.41
180.342
47.9591
-4.33521
-12.6945
-14.9081
-12.0738
-10.6718
-10.6366
-11.0031
-10.4219
-8.69032
-7.34938
-7.31845
-7.20844
-6.19778
-5.33859
-5.36811
-5.89098
-6.29931
-6.28839
-6.0109
-5.78598
-5.98239
-6.87191
-8.41735
-10.3754
-12.7126
-15.3954
-18.1862
-21.0252
-24.1033
-27.1796
-29.7966
-32.5451
-36.0867
-38.8246
-37.6613
-31.8774
-26.5939
-30.9806
-55.6677
-131.061
-221.619
-293.065
-324.218
-318.2
-274.753
-198.993
-94.7807
-35.4126
49.5156
140.671
187.382
217.143
221.869
202.123
166.03
129.02
100.433
78.3748
61.3625
49.3065
41.4887
36.8604
34.295
32.9134
32.1398
31.6169
31.1041
30.3331
29.295
28.0233
26.6406
25.4007
23.7758
21.9867
20.2707
18.6385
17.1493
15.7846
14.4212
12.9352
11.6367
10.6504
9.80985
9.07519
8.48063
8.0451
7.64014
7.30869
7.02845
6.81127
6.6458
6.51191
6.39806
6.30091
6.21705
6.1411
6.07528
6.02266
5.97981
5.94615
5.92603
5.92246
5.96207
6.05457
6.1406
6.22297
-2.30023
-8.8069
-11.9389
-16.0198
-21.3927
-28.1718
-36.2032
-44.5609
-51.9402
-57.8029
-63.1241
-65.8782
-68.2805
-73.4765
-77.4922
-80.4997
-83.0844
-85.8708
-88.8369
-91.9092
-94.8272
-97.3763
-99.2786
-100.59
-101.317
-101.29
-100.151
-97.8444
-94.4747
-90.8265
-86.3314
-80.8887
-74.7993
-65.6676
-56.1444
-50.2904
-36.6522
-31.6564
-20.6389
-6.97005
8.50428
23.2816
37.0673
49.16
59.7448
68.5081
75.7122
81.4639
85.9585
89.4296
91.8702
93.359
94.6191
94.715
95.891
96.616
97.6831
100.252
102.709
108.472
116.685
126.93
140.707
166.817
181.351
221.356
222.691
468.442
356.549
182
-92.3848
-99.5018
-26.4591
-15.6169
-7.00955
-14.3021
-10.2481
-10.4154
-11.0031
-10.8252
-10.464
-9.4334
-7.74385
-6.77841
-6.99867
-6.7827
-5.60512
-4.83368
-5.02009
-5.41317
-5.54493
-5.26571
-4.74866
-4.45616
-4.72578
-5.75084
-7.43527
-9.53064
-11.9759
-14.7957
-17.8188
-20.8677
-24.1111
-27.5608
-30.6111
-33.3723
-36.9321
-40.9321
-42.2545
-37.837
-30.2147
-28.2109
-43.658
-91.104
-181.828
-260.729
-304.418
-313.041
-288.227
-226.416
-146.976
-45.457
-7.90216
104.669
147.716
176.878
190.559
186.351
165.647
135.085
105.578
82.5465
65.4603
53.1768
45.3887
41.13
39.2406
38.7408
38.9084
39.2266
39.2975
38.889
38.1162
37.0011
35.4595
33.5352
31.25
28.851
26.6202
24.8814
23.2219
21.4363
19.6847
17.9931
16.4331
15.0839
13.889
12.7656
11.7264
10.9349
10.2827
9.6927
9.16037
8.72429
8.37695
8.07947
7.81182
7.57383
7.36495
7.17734
7.00652
6.85749
6.73814
6.65562
6.59886
6.55565
6.56561
6.62318
6.67457
6.70564
-5.00042
-5.99179
-9.20907
-12.7428
-18.2977
-24.7623
-31.1701
-35.8313
-39.3647
-41.4026
-42.1956
-41.688
-39.5387
-36.5565
-35.7991
-34.9684
-35.2317
-36.0831
-37.0253
-37.727
-38.0819
-37.9399
-36.8779
-35.1667
-32.9371
-30.1656
-26.56
-22.2384
-17.4862
-11.7948
-5.90803
0.257886
5.352
13.6829
30.7682
32.4269
38.6818
43.5319
51.3879
57.6693
69.6958
80.6102
90.9837
99.7256
107.058
112.478
115.93
117.895
118.486
118.449
117.566
115.777
114.405
111.564
110.642
109.211
108.654
111.423
112.2
121.577
128.346
142.835
153.63
187.108
199.376
230.003
171.815
-134.609
-9.28252
85.163
98.9996
34.3549
-4.6192
-11.5293
-14.5148
-11.046
-11.0156
-11.7136
-11.361
-10.4927
-9.81483
-8.65433
-7.11424
-6.48451
-6.80697
-6.38573
-5.06583
-4.40015
-4.70253
-4.90193
-4.70389
-4.22571
-3.50078
-3.20133
-3.55481
-4.72318
-6.53735
-8.76066
-11.3204
-14.2398
-17.4754
-20.7746
-24.1179
-27.7951
-31.3698
-34.3346
-37.5571
-41.9725
-45.6006
-43.8717
-36.1662
-28.9711
-33.249
-61.8479
-145.624
-224.445
-277.019
-298.96
-291.669
-246.57
-172.165
-79.4155
-24.1439
51.7978
114.909
144.887
159.262
161.054
151.698
131.671
106.809
83.6716
66.1805
53.6819
45.8984
42.0856
41.0529
41.7175
43.2178
44.8871
46.1928
46.7754
46.7317
46.2409
44.8707
42.8184
40.3008
37.5657
34.8449
32.2842
29.9236
27.6109
25.3323
23.4277
21.6577
19.8859
18.3024
16.9445
15.7385
14.6665
13.7033
12.7929
11.9075
11.1534
10.5679
10.064
9.59708
9.17305
8.8059
8.48216
8.18786
7.92801
7.7194
7.57806
7.48567
7.39041
7.35177
7.36219
7.36887
7.28
-13.1079
28.0662
-19.981
-4.06986
3.91838
9.4775
15.8383
22.9531
31.2329
37.7734
42.8193
46.7672
48.241
48.6388
47.6153
48.3613
44.2521
41.3768
40.0681
40.4711
42.3162
45.4352
49.4999
54.563
60.2854
66.357
72.8676
79.4126
85.8821
92.4422
98.7665
104.967
108.325
118.855
141.314
142.309
139.835
134.277
149.921
134.398
151.873
154.031
159.788
164.024
167.525
167.351
164.763
160.483
154.547
148.745
142.509
135.477
129.942
122.645
118.928
114.471
111.769
114.191
113.47
126.313
128.545
141.743
161.515
171.157
166.355
156.15
196.6
167.382
26.9477
-47.4897
-31.7029
-20.5429
-20.2826
-14.2458
-11.022
-11.0642
-11.8693
-11.9246
-10.9389
-9.86802
-9.07004
-7.92199
-6.62208
-6.33367
-6.66321
-5.98567
-4.57438
-4.03582
-4.36094
-4.31787
-3.72085
-3.15216
-2.21258
-1.93736
-2.40249
-3.68094
-5.68204
-8.02068
-10.7148
-13.731
-17.1412
-20.7493
-24.2161
-27.9401
-31.992
-35.4523
-38.3302
-42.349
-47.5154
-49.189
-43.5314
-33.6331
-29.8365
-44.9595
-104.268
-182.801
-241.313
-275.402
-285.135
-259.386
-200.273
-129.136
-42.5543
-3.55144
87.2814
117.338
133.69
136.328
130.886
118.662
100.437
80.8981
63.3174
50.3086
41.9129
38.0858
37.6952
39.5643
42.7432
46.4093
49.9335
52.6518
54.239
54.8246
54.2138
52.6552
50.3954
47.6432
44.5892
41.4464
38.6284
36.1332
33.2868
30.5312
27.9117
25.5024
23.3943
21.7721
20.5491
19.2071
17.8774
16.6608
15.549
14.558
13.6991
12.9209
12.1706
11.4622
10.8606
10.3494
9.88413
9.46432
9.11891
8.8813
8.76147
8.58956
8.44416
8.40399
8.26
7.99739
1.8814
2.72158
2.92073
4.29878
5.42224
7.66665
8.80936
13.1734
17.3138
21.303
28.4841
35.8574
45.0608
52.8643
64.632
73.8702
87.1205
100.755
114.58
128.433
142.253
155.445
168.393
180.775
192.176
202.426
211.559
219.131
225.579
231.288
235.868
239.575
241.44
245.531
252.059
251.626
250.611
250.297
246.031
245.348
244.191
246.064
234.615
242.19
240.121
234.75
221.945
212.129
196.523
182.709
168.924
154.486
142.441
128.589
120.251
110.549
104.063
105.488
104.31
114.316
103.019
119.169
92.6945
74.6003
57.255
9.26989
-34.5077
-28.8352
13.106
14.4908
-13.9239
-14.0327
-14.5149
-11.9787
-11.4637
-12.0306
-12.199
-11.405
-10.1044
-9.06158
-8.33952
-7.33665
-6.34103
-6.32279
-6.51621
-5.52729
-4.08676
-3.70826
-3.92092
-3.58059
-2.57963
-1.96746
-0.924287
-0.464343
-1.44215
-2.39105
-4.95097
-7.30659
-10.173
-13.3416
-16.8945
-20.8285
-24.5185
-28.1016
-32.3532
-36.5766
-39.582
-42.7351
-48.1117
-52.8098
-50.903
-41.1746
-30.4885
-34.7241
-70.4242
-137.467
-197.735
-240.765
-267.059
-261.232
-220.964
-156.041
-74.3154
-29.6197
37.1472
84.2638
109.352
117.377
112.576
102.196
87.7319
71.6444
55.6992
42.4007
33.2974
28.5392
27.7391
29.8542
34.2145
39.7216
45.822
51.8193
56.5092
59.3656
60.8195
61.0471
60.324
58.6266
56.0779
52.8738
49.4472
46.2478
42.8398
39.4716
36.2662
33.3107
30.649
28.3842
26.6236
24.6778
22.8396
21.2517
19.9574
18.7925
17.6577
16.6096
15.6517
14.7641
13.9485
13.1963
12.4795
11.7996
11.2186
10.782
10.668
10.3745
9.99178
9.68949
9.21006
8.87533
-0.211581
0.19269
0.329918
0.861202
0.722883
-3.01631
8.76808
-20.9302
24.0191
-1.94611
-0.0195252
2.91854
5.30375
7.22316
10.0854
13.2064
17.472
22.6064
29.191
36.9692
46.1023
56.2236
67.9856
80.5145
94.0206
108.164
122.477
136.735
151.552
165.072
177.62
189.891
201.388
212.109
222.543
235.791
246.256
256.456
263.286
270.944
276.219
276.517
281.024
273.139
274.874
270.04
235.273
241.541
216.415
192.318
171.662
150.893
131.259
112.352
97.8788
81.6091
74.6126
62.3371
52.7558
46.4436
35.9802
30.6154
20.2988
12.5928
4.05429
5.41418
8.98169
-5.02712
-23.0918
-14.8449
-16.8446
-13.733
-11.5018
-11.5808
-12.2496
-12.3894
-11.635
-10.3315
-9.16606
-8.35101
-7.81809
-6.98712
-6.25765
-6.3768
-6.31588
-5.02212
-3.63245
-3.39397
-3.3593
-2.60127
-1.49754
-0.492793
-0.363904
2.21249
-1.03105
-1.7332
-3.96906
-6.58768
-9.7283
-13.1724
-16.8278
-20.9434
-24.8934
-28.3028
-32.3804
-37.3491
-41.2392
-43.834
-48.2546
-54.5673
-56.7267
-49.7184
-35.8522
-28.2349
-48.3382
-95.2035
-150.741
-198.964
-238.1
-250.377
-230.588
-180.985
-115.651
-49.9932
-9.95193
58.9923
85.088
98.809
99.6256
90.4026
76.3378
61.6979
47.2942
34.0529
24.0052
17.5495
15.0885
16.4232
20.3482
26.2311
33.1711
40.4348
47.4748
53.887
58.9754
61.6602
64.2497
65.4733
65.2146
63.4794
60.2747
56.3226
52.9086
49.5182
46.1155
42.7953
39.6236
36.6318
34.0604
31.5335
29.205
27.1252
25.2659
23.57
22.0362
20.6897
19.5434
18.5368
17.5541
16.5946
15.6951
14.851
14.0655
13.3236
12.8116
12.2781
11.6549
10.8525
10.2937
9.96974
-0.423378
-0.262861
-0.162181
-0.217893
-0.43377
-0.100716
-0.754571
-0.634517
0.232878
-0.708355
-1.07757
1.76187
-5.88103
3.81103
-0.35342
-0.470243
0.402126
0.868552
1.6291
2.47396
3.53455
4.83333
6.66093
8.79798
11.4189
14.5683
17.9183
21.8816
26.3315
31.025
35.5953
40.7824
46.7597
52.7271
57.4855
64.1346
72.2199
78.3267
85.2577
91.7536
97.4667
102.462
107.196
108.445
112.897
107.88
110.268
97.0948
89.3683
84.3779
72.9411
61.2887
50.9656
41.3092
32.4158
24.8621
18.9455
14.4555
10.0019
5.50038
1.44767
-0.00643715
-3.85012
-5.46328
-6.4041
-10.1902
-6.88785
-13.1348
-14.0748
-15.5038
-12.9818
-11.5832
-11.7836
-12.2864
-12.2427
-11.5075
-10.3019
-9.14628
-8.31056
-7.85398
-7.49746
-6.80574
-6.27828
-6.40052
-6.01281
-4.47514
-3.21541
-3.02397
-2.61831
-1.50748
-0.424145
0.609407
1.9792
3.52607
0.156418
-1.49609
-3.55272
-5.80534
-9.4372
-13.266
-16.9744
-20.9359
-25.0331
-28.4584
-32.1745
-37.5371
-42.9212
-45.9497
-49.0203
-55.2747
-60.7187
-57.6957
-44.1586
-29.1722
-33.5426
-62.362
-103.855
-151.327
-199.459
-227.913
-227.488
-196.377
-144.794
-84.8286
-28.3387
8.68913
65.7635
80.8112
86.7729
82.5613
70.9032
55.8458
42.3086
29.7946
18.8858
10.7785
5.97913
4.2575
5.72548
9.50421
14.7458
20.7475
27.2182
33.808
40.8533
48.8296
53.9898
58.0826
61.0717
62.7218
62.7314
61.2371
59.6966
57.7393
55.2196
52.3075
49.174
45.8151
42.1919
39.2037
36.5531
34.099
31.7991
29.6519
27.6759
25.8831
24.2589
22.7608
21.3661
20.0937
18.9717
17.9728
16.9961
15.9765
14.6954
13.7827
12.9906
12.3411
11.8631
11.5643
-0.37743
-0.361704
-0.336249
-0.383635
-0.421524
-0.469363
-0.583584
-0.545836
-0.632203
-0.745368
-0.684826
-0.846122
-0.93589
-0.806642
-0.907255
-1.03933
-1.18242
-0.632259
-1.64774
-0.641184
-0.836698
-0.828143
-0.672775
-0.475663
-0.172412
0.181554
0.6453
1.06425
1.61671
2.30772
2.87011
3.72221
4.99436
5.92736
6.56813
8.08031
9.78219
11.0426
12.7236
14.2234
15.4056
16.7559
17.736
18.6526
19.705
19.6416
20.0167
18.4572
17.7176
16.0163
13.9679
12.7682
7.77325
6.37091
3.46879
1.34433
-0.61458
-1.80771
-3.23598
-5.73187
-5.61558
-6.85849
-5.18135
-9.55078
-9.47474
-10.3942
-11.8778
-13.5393
-13.342
-11.9331
-11.4767
-11.7566
-12.0684
-11.8392
-11.0779
-10.0393
-9.02421
-8.29294
-7.83374
-7.60927
-7.31119
-6.71091
-6.31848
-6.32935
-5.59826
-3.92898
-2.82278
-2.53615
-1.7259
-0.348474
0.336641
2.69665
3.59482
4.81779
2.41974
-2.28977
-3.60865
-4.90135
-9.52944
-13.5329
-17.1813
-20.6357
-24.5587
-28.2976
-31.9042
-37.1871
-44.141
-48.8505
-51.2287
-56.1336
-63.3756
-64.7105
-53.7131
-35.0848
-25.6204
-37.5805
-64.0011
-101.236
-152.864
-194.464
-211.038
-199.987
-162.751
-111.265
-50.2945
-20.2001
28.3895
62.7155
75.7889
76.6207
68.9112
56.1879
42.2021
29.986
17.4387
7.09965
-0.333658
-4.31896
-5.20606
-3.57128
-0.283092
4.24896
9.62596
15.514
20.973
24.9758
30.105
35.1841
39.7395
43.6269
47.1527
50.7473
53.2319
53.9796
53.9305
53.2266
51.8481
49.6053
47.4202
44.925
42.7232
40.5078
38.2026
35.8956
33.6454
31.4869
29.4366
27.4969
25.6751
23.9799
22.4146
20.9453
19.5351
18.1769
16.9475
15.9536
15.1572
14.5728
14.0911
13.8519
-0.340549
-0.373862
-0.382783
-0.408599
-0.439063
-0.475192
-0.533434
-0.564359
-0.601571
-0.649307
-0.705142
-0.748825
-0.770717
-0.847596
-0.890635
-0.938198
-1.01161
-1.05925
-1.14372
-1.13471
-1.2135
-1.26647
-1.1547
-1.37368
-1.30466
-1.27007
-1.25679
-1.17046
-1.07906
-0.982166
-0.819743
-0.706169
-0.437249
-0.299478
-0.172934
0.129645
0.506181
0.716678
1.05942
1.35156
1.57025
1.81062
1.97295
2.15165
2.344
2.37591
2.38853
2.26267
1.94998
1.57107
0.950763
0.235587
-0.774962
-1.96743
-1.88266
-2.454
-3.27002
-4.06205
-5.09153
-6.11966
-6.70683
-7.94826
-8.1027
-9.16201
-9.65109
-10.9802
-11.8393
-11.6298
-11.1092
-11.0693
-11.3086
-11.4054
-11.1235
-10.4093
-9.5003
-8.69704
-8.12395
-7.75942
-7.59986
-7.49012
-7.19591
-6.66319
-6.32075
-6.13218
-5.10542
-3.41751
-2.4038
-1.75823
-0.596729
0.0879042
1.8066
5.38172
5.05966
5.53529
3.46945
-1.98744
-3.50457
-5.52352
-9.17026
-13.7038
-17.0665
-19.7414
-23.1912
-27.5139
-31.6343
-36.5845
-44.4444
-51.6667
-54.943
-58.3023
-65.6916
-70.9204
-64.086
-44.2049
-24.4631
-20.4307
-32.7332
-55.6474
-101.712
-151.608
-183.48
-190.258
-171.328
-130.912
-79.3346
-32.2026
-9.33476
42.0402
62.6158
70.7039
69.0333
60.572
48.701
36.2622
24.5428
11.6236
0.967578
-7.47903
-13.133
-14.6236
-15.781
-13.7227
-12.0708
-7.48343
-2.65903
3.11099
8.48428
13.9784
19.19
23.7578
27.6579
30.5055
31.1871
33.4811
35.6308
37.3812
38.7999
39.9272
40.3574
40.7906
40.5809
40.1584
38.9781
37.5675
36.0089
34.3501
32.6355
30.9044
29.1939
27.5212
25.9096
24.3482
22.8454
21.4247
20.1411
19.0342
18.1065
17.3188
16.6832
16.3313
-0.341672
-0.378244
-0.40229
-0.426015
-0.453569
-0.481667
-0.519368
-0.55691
-0.580885
-0.613169
-0.658275
-0.688643
-0.717846
-0.756585
-0.812485
-0.839742
-0.88994
-0.944719
-0.995981
-1.03465
-1.08647
-1.12984
-1.17396
-1.21961
-1.24854
-1.27536
-1.30273
-1.25415
-1.26985
-1.24847
-1.25683
-1.19948
-1.1235
-1.08273
-1.0305
-0.964113
-0.893982
-0.795593
-0.686719
-0.582026
-0.505827
-0.422697
-0.374067
-0.184539
-0.0659353
-0.0291638
-0.0311244
-0.0720359
-0.291329
-0.524304
-0.918664
-1.32543
-1.87704
-2.52065
-2.90677
-3.47252
-4.08642
-4.75107
-5.54222
-6.09999
-6.99297
-8.03829
-7.72676
-8.9696
-9.69232
-10.1893
-10.2654
-10.2146
-10.3416
-10.5041
-10.4296
-10.0631
-9.49186
-8.76157
-8.13372
-7.80695
-7.58369
-7.52084
-7.51771
-7.4004
-7.07807
-6.58947
-6.21808
-5.80151
-4.59707
-2.94842
-1.81971
-0.796297
-0.249171
1.15926
5.13336
6.8677
6.22851
5.99615
4.17302
-2.04335
-4.0036
-5.56079
-9.25852
-13.5502
-16.0408
-17.9391
-21.1506
-26.2416
-31.2999
-35.9841
-43.391
-52.6435
-58.5152
-61.5427
-68.1905
-76.9924
-75.5329
-55.7371
-28.2089
-11.1907
-9.07163
-19.2942
-49.5828
-102.464
-146.208
-168.062
-166.826
-141.377
-100.533
-53.8514
-18.354
8.59534
51.1816
64.6581
69.3653
66.087
57.5035
46.7618
36.1177
25.7346
12.8099
1.12359
-10.0039
-17.2963
-20.9774
-24.5512
-25.9571
-25.4961
-23.6617
-20.9633
-17.3492
-13.8084
-8.05099
-3.72112
0.487884
4.632
9.40112
12.9708
16.318
19.3411
21.9363
24.1556
25.6135
26.4696
26.8243
26.2192
26.5367
26.8074
26.8998
26.8025
26.5234
26.0803
25.4926
24.7697
23.9613
23.0801
22.1604
21.2123
20.2975
19.4587
18.713
18.2115
17.6962
17.2277
-0.356273
-0.387151
-0.413356
-0.437808
-0.462868
-0.488672
-0.517255
-0.545304
-0.569738
-0.596568
-0.625998
-0.654138
-0.681988
-0.712423
-0.751374
-0.783882
-0.818292
-0.859842
-0.90181
-0.936975
-0.974835
-1.00708
-1.03941
-1.0637
-1.08443
-1.10273
-1.11397
-1.10273
-1.09741
-1.08588
-1.08133
-1.0537
-1.02008
-1.01499
-0.99055
-1.01098
-1.00235
-0.965611
-0.916787
-0.864373
-0.826499
-0.768933
-0.757741
-0.743138
-0.728461
-0.739911
-0.78492
-0.875169
-0.965606
-1.15966
-1.42498
-1.74919
-2.12475
-2.59002
-3.07099
-3.57045
-4.13564
-4.67442
-5.36101
-5.90181
-6.0984
-7.05592
-7.51897
-7.46487
-8.63443
-8.9634
-9.11451
-9.22557
-9.26902
-9.1104
-8.76539
-8.32919
-7.87319
-7.45652
-7.31159
-7.30277
-7.32058
-7.41504
-7.42369
-7.24243
-6.9127
-6.44754
-5.9937
-5.3968
-4.12752
-2.45145
-0.974691
-0.556083
0.518136
3.084
8.04166
8.25297
7.15067
6.08686
4.18685
-2.11724
-4.38203
-5.94218
-9.14833
-12.4632
-13.9652
-15.6375
-19.7241
-25.6919
-31.1943
-35.1605
-40.5663
-49.6906
-57.6263
-61.701
-69.0899
-81.9669
-87.4071
-69.588
-36.0086
-7.92824
4.70193
9.29275
-5.84956
-51.4628
-102.212
-136.652
-149.86
-141.441
-112.25
-70.8917
-27.1411
-8.34461
30.3888
57.2039
68.9029
71.4448
67.0179
58.3699
48.4242
38.5121
29.0389
17.347
4.8578
-7.13165
-16.0244
-19.1602
-25.5365
-28.6971
-30.2909
-30.5472
-29.9186
-28.3017
-26.3292
-23.9195
-20.5277
-17.7789
-13.9848
-11.5251
-8.37118
-4.65731
-1.68481
1.09181
3.62044
5.98783
8.22466
10.6318
12.313
13.6627
14.7914
15.7216
16.4564
17.0124
17.4083
17.638
17.741
17.7369
17.6476
17.4719
17.2705
17.0329
16.8436
16.5877
16.4498
16.3075
-0.368324
-0.394586
-0.419285
-0.442783
-0.465856
-0.488987
-0.512606
-0.535963
-0.558605
-0.58184
-0.605998
-0.630806
-0.656173
-0.68356
-0.713646
-0.743224
-0.773799
-0.806332
-0.83856
-0.867965
-0.895636
-0.919139
-0.940983
-0.955286
-0.963991
-0.971486
-0.969196
-0.96046
-0.935668
-0.930682
-0.933863
-0.89407
-0.875644
-0.91646
-0.923587
-0.915664
-0.896357
-0.871005
-0.833698
-0.800112
-0.774534
-0.745604
-0.735766
-0.731265
-0.73688
-0.759946
-0.811059
-0.893628
-1.01004
-1.1831
-1.37832
-1.66027
-1.94756
-2.28326
-2.73953
-3.02974
-3.66808
-4.02105
-4.50318
-5.39278
-5.37547
-5.89062
-5.75722
-7.40805
-7.52123
-7.65106
-7.72069
-7.70382
-7.56699
-7.31437
-7.04299
-6.83601
-6.70349
-6.72349
-6.89037
-7.05344
-7.18306
-7.31426
-7.25226
-7.01677
-6.69519
-6.21987
-5.6837
-4.99879
-3.65988
-1.9399
-0.620807
-0.171279
1.68061
6.85633
9.42059
9.14326
7.61902
5.89845
3.26915
-1.86752
-5.24421
-6.79321
-7.59613
-10.4952
-12.4991
-16.2817
-22.0063
-26.7624
-30.1808
-31.583
-34.1244
-42.5426
-50.5081
-54.798
-62.4648
-80.6057
-95.6181
-83.4175
-47.6266
-5.27037
12.8625
23.1877
18.8002
-0.0574197
-55.026
-98.287
-123.579
-129.812
-114.275
-82.7032
-42.3984
-11.0016
3.56414
51.7295
66.3039
74.2692
74.2058
68.003
58.22
47.1385
37.1221
24.7436
14.0513
5.54822
-2.48913
-9.72788
-12.4428
-18.0633
-21.5908
-23.5975
-24.5693
-24.7371
-24.605
-24.3849
-23.3488
-21.9596
-20.7418
-18.9814
-18.0921
-15.6863
-14.2104
-12.0171
-9.86577
-7.79646
-5.66082
-3.6337
-1.78169
-0.0614546
1.55196
3.06699
4.48816
5.82283
7.07142
8.27283
9.50696
10.5718
11.4997
12.2678
12.9134
13.412
13.8529
14.0935
14.4538
14.2918
-0.374259
-0.39699
-0.419205
-0.440751
-0.461852
-0.482705
-0.503594
-0.524542
-0.545535
-0.566947
-0.589001
-0.6118
-0.635462
-0.660466
-0.686721
-0.713414
-0.7404
-0.767382
-0.793265
-0.816894
-0.837589
-0.854519
-0.867707
-0.875077
-0.877345
-0.874764
-0.86552
-0.853746
-0.838448
-0.830934
-0.825943
-0.836664
-0.847662
-0.844837
-0.836801
-0.794406
-0.757737
-0.729068
-0.69921
-0.670295
-0.64423
-0.61985
-0.603081
-0.596607
-0.603534
-0.626895
-0.671676
-0.745986
-0.851379
-0.991852
-1.18091
-1.3977
-1.66197
-1.98071
-2.29866
-2.68198
-3.11732
-3.47228
-4.02116
-4.61999
-4.83646
-5.11315
-5.92112
-6.02388
-6.10039
-6.15297
-6.10774
-6.03769
-5.90516
-5.80027
-5.80323
-5.93459
-6.1379
-6.4168
-6.70957
-6.88958
-7.03125
-7.11013
-6.95551
-6.73313
-6.44697
-5.91403
-5.36564
-4.67265
-3.0839
-1.25048
-0.718233
0.494448
3.76641
10.0048
10.4827
9.42583
7.47338
5.11934
2.06343
-2.44365
-5.11593
-6.24046
-7.82813
-13.1749
-15.1198
-19.9408
-24.0723
-27.8129
-28.6157
-28.3325
-27.8528
-32.0982
-40.8223
-46.8747
-54.4102
-71.6757
-93.6773
-92.1783
-60.1034
-9.76917
6.43848
39.933
35.067
25.7773
4.97511
-58.8732
-91.4952
-108.439
-106.788
-86.8531
-52.6954
-16.0068
-1.59634
30.1602
58.5278
72.3009
76.2276
72.4643
63.3959
51.3214
37.7514
26.0827
17.4389
10.7605
4.12741
-1.75228
-6.78413
-8.28989
-13.4212
-15.6675
-17.3347
-18.4297
-19.0346
-19.0851
-18.6813
-17.9446
-16.9993
-15.9552
-14.9923
-13.8594
-13.1045
-11.2621
-9.62669
-8.31479
-7.03547
-5.72082
-4.37465
-3.01535
-1.6608
-0.322337
0.995043
2.28773
3.56075
4.73727
5.71693
6.70775
7.67046
8.56701
9.41297
10.144
10.8315
11.2924
11.8992
11.8032
-0.37359
-0.393081
-0.412886
-0.432482
-0.451734
-0.47102
-0.490536
-0.510403
-0.530596
-0.551177
-0.572328
-0.594202
-0.616815
-0.640271
-0.664426
-0.688796
-0.712833
-0.735921
-0.757391
-0.776461
-0.792364
-0.80414
-0.811622
-0.814232
-0.811689
-0.804366
-0.792833
-0.784328
-0.780421
-0.796477
-0.795624
-0.793718
-0.787976
-0.742746
-0.707648
-0.676501
-0.648082
-0.620655
-0.593029
-0.565819
-0.54011
-0.516819
-0.499141
-0.491278
-0.495353
-0.514673
-0.553962
-0.618533
-0.712066
-0.835014
-1.00547
-1.18214
-1.44312
-1.70004
-1.97176
-2.40241
-2.63045
-3.13034
-3.68476
-3.62207
-4.14464
-4.32933
-4.41972
-4.49744
-4.51121
-4.52016
-4.52719
-4.57947
-4.6467
-4.89742
-5.26485
-5.64461
-5.99361
-6.3213
-6.55599
-6.67811
-6.79775
-6.80441
-6.63059
-6.47747
-6.17921
-5.59958
-5.10414
-4.302
-2.62441
-1.20201
-0.518308
1.41488
7.66337
10.9973
10.6947
9.12505
6.7208
3.77814
0.588608
-3.3694
-5.94122
-9.75888
-7.80887
-16.6989
-17.4278
-21.695
-31.4066
-34.9338
-26.6124
-16.7631
-10.4278
-10.021
-20.4611
-27.7167
-37.9285
-59.492
-86.1257
-93.4442
-68.3996
-22.3354
7.73181
38.7183
55.8185
41.9474
28.9368
6.42166
-60.2821
-83.0223
-92.7645
-84.4353
-60.2804
-27.2932
-3.68634
7.67328
49.1263
64.6229
71.4332
69.9108
62.1494
50.4079
37.3441
26.5237
18.3286
12.0237
6.84541
2.6023
-0.883183
-4.1343
-5.87972
-8.96777
-10.5854
-11.9823
-12.8762
-13.2801
-13.2332
-12.9125
-12.4395
-11.899
-11.3535
-10.7393
-9.89588
-9.32809
-7.5904
-6.7645
-6.07414
-5.28359
-4.38934
-3.4264
-2.41896
-1.38936
-0.33837
0.719944
1.79476
2.81172
3.6197
4.44545
5.27138
6.07141
6.85516
7.56384
8.25813
8.77942
9.4006
9.63054
-0.368322
-0.385872
-0.402739
-0.420059
-0.438326
-0.457477
-0.476422
-0.495543
-0.515524
-0.535913
-0.556623
-0.577757
-0.599684
-0.622314
-0.645303
-0.668012
-0.68966
-0.709745
-0.72799
-0.744161
-0.757397
-0.766389
-0.770768
-0.771721
-0.768376
-0.761382
-0.75736
-0.766058
-0.76412
-0.763692
-0.759433
-0.722034
-0.690725
-0.662238
-0.63597
-0.610955
-0.586516
-0.56202
-0.537185
-0.512871
-0.490081
-0.470063
-0.45452
-0.446838
-0.44943
-0.465438
-0.500868
-0.554574
-0.638679
-0.748641
-0.88609
-1.06766
-1.26111
-1.51846
-1.7599
-2.1207
-2.47646
-2.82835
-2.64868
-3.07409
-3.23268
-3.35958
-3.45341
-3.56753
-3.70396
-3.83575
-4.03578
-4.29122
-4.55285
-4.94654
-5.3368
-5.63649
-5.90905
-6.15248
-6.29805
-6.41478
-6.53497
-6.49818
-6.36562
-6.27217
-5.87296
-5.32142
-4.93828
-3.83498
-2.00478
-1.48012
-0.0776385
2.38874
10.6415
10.7463
9.91419
8.32476
6.22052
1.24236
-2.10585
-4.35745
-8.61924
-12.6095
-10.1978
-22.7174
-31.3734
-41.8386
-54.5025
-48.3982
-18.3341
11.9625
17.7608
33.8342
29.6248
-2.89842
-12.1265
-12.4705
-74.0197
-89.551
-73.6916
-32.5731
6.45591
28.4687
66.1694
66.5138
43.4439
27.9549
-2.95546
-57.5811
-75.8869
-78.0323
-64.2909
-38.1995
-9.90915
0.846317
25.8017
50.0082
59.8402
60.5298
53.7388
43.9852
34.2581
26.2001
20.1033
15.602
12.049
9.11405
6.52117
4.1698
1.85861
-0.589178
-1.71505
-3.86566
-5.12321
-6.02335
-6.70738
-7.01833
-7.08319
-7.08088
-7.10153
-7.04406
-6.91056
-6.50227
-5.73077
-4.88914
-4.48763
-3.9874
-3.40474
-2.76237
-2.06451
-1.33004
-0.558666
0.223337
1.11678
2.00227
2.88822
3.69195
4.45671
5.19262
5.89212
6.54836
7.18148
7.72908
8.28768
8.73561
-0.3616
-0.377963
-0.392718
-0.407209
-0.422428
-0.439308
-0.459381
-0.479887
-0.50091
-0.520453
-0.539495
-0.559188
-0.579567
-0.600541
-0.622179
-0.643843
-0.663832
-0.681159
-0.697274
-0.713504
-0.728528
-0.73804
-0.736255
-0.738687
-0.742035
-0.743038
-0.749788
-0.742844
-0.739357
-0.712153
-0.690516
-0.668283
-0.646677
-0.626302
-0.606188
-0.586346
-0.56653
-0.546521
-0.526465
-0.506901
-0.488493
-0.472463
-0.459732
-0.453419
-0.455742
-0.469311
-0.499754
-0.5463
-0.616452
-0.714707
-0.827928
-0.993048
-1.1495
-1.38692
-1.60225
-1.87195
-2.02833
-2.10255
-2.39551
-2.52039
-2.6256
-2.80039
-2.94902
-3.1116
-3.33553
-3.50249
-3.7894
-4.04299
-4.32446
-4.68653
-5.0251
-5.26708
-5.54581
-5.8024
-5.95156
-6.14316
-6.24417
-6.19123
-6.12245
-6.01594
-5.52265
-5.118
-4.79683
-3.47533
-1.94108
-1.38374
0.448419
6.25248
9.27284
9.73772
8.968
6.73019
3.088
-1.50577
-7.22729
-7.81062
-7.23147
-22.106
-24.7045
-52.9101
-69.2858
-80.1665
-87.0927
-53.9061
16.4963
36.7257
52.474
94.6837
104.418
80.4864
34.6432
-9.1654
-14.8095
-81.2864
-72.8448
-37.8415
0.358625
14.1326
72.6745
79.218
66.7503
40.0535
25.466
-20.9298
-57.4953
-70.418
-66.4788
-49.1337
-25.9511
-4.38119
2.57105
32.9574
43.0174
44.1658
41.1058
35.8864
30.4468
25.8197
22.1885
19.3084
16.8583
14.6289
12.4682
10.3503
8.38489
6.56944
5.13737
3.40455
1.9575
0.744704
0.0511415
-0.563965
-0.86343
-1.08564
-1.28864
-1.41413
-1.42672
-1.37178
-1.10166
-0.777749
-0.519385
-0.235556
0.0822648
0.422094
0.833914
1.29623
1.79404
2.33747
2.74858
3.26981
3.84911
4.46359
5.08139
5.71216
6.29947
6.87853
7.42919
7.93847
8.4457
9.00044
-0.338108
-0.353921
-0.370904
-0.385719
-0.401235
-0.416918
-0.435021
-0.455056
-0.474968
-0.493454
-0.511603
-0.529914
-0.548532
-0.568342
-0.588875
-0.61003
-0.626554
-0.641692
-0.657306
-0.673518
-0.721383
-0.738407
-0.678415
-0.687587
-0.727249
-0.7341
-0.73475
-0.719448
-0.708986
-0.697546
-0.68509
-0.671846
-0.658215
-0.644448
-0.630482
-0.616457
-0.602382
-0.588181
-0.574099
-0.559009
-0.544978
-0.532537
-0.522394
-0.516998
-0.519253
-0.530273
-0.556737
-0.594942
-0.655858
-0.733012
-0.837486
-0.962698
-1.10533
-1.28716
-1.42649
-1.52156
-1.6989
-1.87169
-1.98547
-2.16885
-2.28178
-2.48657
-2.66194
-2.83793
-3.10988
-3.28498
-3.60567
-3.84758
-4.1918
-4.48203
-4.79958
-5.02573
-5.29728
-5.53052
-5.64244
-5.8601
-5.88257
-5.83653
-5.86011
-5.65989
-5.19949
-4.99116
-4.4368
-2.7723
-2.12774
-0.623154
1.66438
7.51874
7.4089
8.72582
7.29567
3.00156
-2.94524
-4.45832
-6.84725
-20.3942
-17.4374
-47.8244
-82.2316
-115.08
-130.015
-127.083
-104.03
-31.118
50.7677
64.4561
95.5756
153.659
184.438
178.408
120.701
57.5713
-6.01174
-39.6358
-53.9045
-35.3634
-1.2267
10.164
65.8786
84.654
79.7213
59.9158
30.1829
20.6627
-46.8341
-64.512
-68.7944
-59.6835
-41.9148
-21.7788
-4.59232
4.45131
23.1703
27.2847
28.5726
28.6334
28.1201
27.3224
26.248
24.8675
23.1838
21.2018
19.0676
16.8824
14.7524
12.6717
10.4282
8.57908
7.06151
5.87835
4.94546
4.31747
3.95466
3.70971
3.47713
3.31101
3.21987
3.16102
3.18175
3.19344
3.30625
3.4766
3.66624
3.80835
4.01675
4.32704
4.65837
4.98903
5.45872
5.89657
6.3485
6.82111
7.29706
7.80806
8.21453
8.6498
9.0734
9.40926
9.967
10.2692
-0.302309
-0.319445
-0.338193
-0.357457
-0.378944
-0.395004
-0.415614
-0.435538
-0.454787
-0.472698
-0.485167
-0.497544
-0.522038
-0.552416
-0.577618
-0.583607
-0.576039
-0.581872
-0.607596
-0.641443
-0.674675
-0.696421
-0.712574
-0.727634
-0.738795
-0.745752
-0.74943
-0.749624
-0.747728
-0.744347
-0.739562
-0.733558
-0.726662
-0.719139
-0.711083
-0.702674
-0.693962
-0.684902
-0.675389
-0.666832
-0.658069
-0.650422
-0.645115
-0.641862
-0.648749
-0.659257
-0.682922
-0.709339
-0.759715
-0.807546
-0.894352
-0.97372
-1.09164
-1.19022
-1.3148
-1.43198
-1.56473
-1.69263
-1.81197
-1.99509
-2.12622
-2.32668
-2.52284
-2.70468
-2.96509
-3.17841
-3.44907
-3.71524
-3.97226
-4.19851
-4.44249
-4.64716
-4.86451
-5.08147
-5.19377
-5.44083
-5.43309
-5.48468
-5.56462
-5.23838
-5.0023
-4.8483
-3.38078
-2.77439
-1.84097
-0.459756
4.94082
5.9549
5.49946
3.42366
-0.673812
-3.16456
-5.97105
-10.4902
-18.4846
-48.554
-72.4274
-124.197
-175.267
-192.056
-179.904
-138.826
-63.8154
22.7581
50.7327
80.1891
149.061
188.133
225.233
243.658
218.698
139.855
55.864
-1.70118
-41.0016
-24.0873
2.15531
10.7174
64.2219
86.0946
83.3618
63.332
32.6039
20.2749
-25.6061
-61.1137
-72.7163
-69.9196
-56.8226
-39.1492
-23.1384
-6.57671
-0.921807
12.1092
17.8389
24.105
28.5197
31.0579
31.9673
31.459
30.044
27.9074
25.4978
23.0047
20.5717
18.2661
16.1166
14.1817
12.5401
11.254
10.2827
9.5741
9.13928
8.95543
8.76941
8.59977
8.55176
8.61243
8.36826
8.01467
8.03541
8.17228
8.35501
8.4098
8.18864
8.50055
8.75473
8.87991
9.1086
9.34032
9.64934
9.87565
10.1613
10.5504
10.672
10.7921
10.9557
11.1491
11.235
11.3686
-0.250029
-0.273498
-0.297032
-0.311595
-0.323775
-0.338266
-0.371942
-0.41295
-0.454316
-0.457018
-0.43547
-0.428936
-0.458778
-0.496396
-0.526913
-0.55346
-0.574799
-0.593322
-0.611874
-0.629352
-0.649613
-0.669779
-0.68746
-0.704413
-0.719166
-0.731041
-0.741313
-0.749069
-0.754908
-0.75918
-0.762125
-0.7639
-0.76465
-0.764532
-0.763671
-0.762194
-0.760219
-0.757822
-0.755118
-0.752261
-0.749505
-0.747389
-0.746088
-0.749239
-0.748711
-0.753622
-0.769021
-0.787575
-0.823382
-0.862121
-0.9238
-0.99815
-1.0735
-1.21569
-1.30683
-1.38624
-1.49
-1.62456
-1.75
-1.92802
-2.06873
-2.25194
-2.4471
-2.61854
-2.84723
-3.05738
-3.26251
-3.43843
-3.643
-3.8224
-4.01152
-4.24262
-4.38696
-4.62974
-4.75174
-4.95998
-4.99993
-5.07198
-5.1256
-4.79985
-4.78989
-3.71177
-3.33809
-2.16137
-0.550484
1.79967
3.26942
-0.0522586
-2.48814
-2.84121
-6.35077
-11.2963
-21.3648
-40.0767
-70.767
-123.627
-179.545
-243.25
-253.141
-213.408
-142.811
-65.4699
5.29555
31.3547
60.2967
111.492
156.173
194.046
233.578
265.295
259.328
200.034
123.371
51.4263
1.20771
-6.8583
8.36934
10.4856
69.6388
85.7109
81.6455
59.5938
33.1168
16.3057
-25.829
-64.1761
-77.8131
-77.6721
-67.925
-52.9418
-39.2731
-26.1393
-11.9459
3.21993
8.81477
22.958
31.692
36.1648
38.0275
37.7611
36.1111
33.7199
30.8965
28.1149
25.5326
23.1537
20.9399
18.8894
17.0567
15.5589
14.5643
13.6729
13.1115
12.9325
12.8081
12.6261
12.4523
12.2695
12.0728
11.8706
11.7587
11.6859
11.6261
11.5247
11.4694
11.4604
11.4786
11.4749
11.5178
11.5543
11.6033
11.6343
11.6442
11.6379
11.5216
11.3818
11.2602
11.0767
10.9428
10.4904
-0.16648
-0.184943
-0.203397
-0.217033
-0.232829
-0.259336
-0.27498
-0.278752
-0.302877
-0.323029
-0.319313
-0.327982
-0.356448
-0.386972
-0.413994
-0.438152
-0.460443
-0.482084
-0.504241
-0.527405
-0.549799
-0.57148
-0.592936
-0.6134
-0.632646
-0.650838
-0.667624
-0.683167
-0.697392
-0.710409
-0.722327
-0.733196
-0.743039
-0.751905
-0.759887
-0.767108
-0.773669
-0.779653
-0.785116
-0.790101
-0.794894
-0.799391
-0.805045
-0.810185
-0.819392
-0.832086
-0.8487
-0.870096
-0.896706
-0.932933
-0.977093
-1.03163
-1.10467
-1.18013
-1.28378
-1.39993
-1.51611
-1.67269
-1.83198
-1.95345
-2.09677
-2.23665
-2.37487
-2.52864
-2.65567
-2.79308
-2.92628
-3.03374
-3.1897
-3.30575
-3.44126
-3.66157
-3.72279
-3.99131
-4.14067
-4.23433
-4.52798
-4.24507
-4.63261
-4.19547
-3.88396
-2.51666
-2.89103
-1.9169
2.69375
-2.80958
-4.57385
-5.69421
-8.78194
-10.1683
-27.6867
-35.5489
-80.1525
-110.449
-179.444
-263.308
-295.451
-228.706
-157.884
-103.548
-51.7943
0.925615
21.324
41.1014
78.2531
104.73
139.321
178.999
217.999
246.487
252.326
219.433
158.53
94.192
48.239
19.8721
13.413
38.5274
68.1791
78.3026
68.6824
45.754
17.6039
8.36363
-37.606
-73.7498
-87.7639
-89.3024
-82.2105
-71.4935
-56.7396
-38.5137
-19.2749
-0.764476
13.7627
21.6224
36.1675
40.4146
41.9694
41.5412
39.5201
36.7429
33.7282
30.8654
28.3459
26.0548
23.8555
21.7324
19.7998
17.6339
16.3849
15.4467
15.1837
14.9288
14.6329
14.3147
14.0012
13.6971
13.4053
13.1178
12.8591
12.6116
12.381
12.1438
11.932
11.7257
11.5667
11.3612
11.2011
11.0052
10.8108
10.5695
10.304
9.96451
9.56715
9.07804
8.65394
8.05075
7.66683
6.62387
-0.0791527
-0.091753
-0.105502
-0.120206
-0.136714
-0.154371
-0.170315
-0.18641
-0.203092
-0.219738
-0.238321
-0.254972
-0.269524
-0.28384
-0.297373
-0.311702
-0.332343
-0.354375
-0.381735
-0.407383
-0.430513
-0.452726
-0.475539
-0.498948
-0.52248
-0.545997
-0.56936
-0.592261
-0.614536
-0.636239
-0.657465
-0.678179
-0.698307
-0.717855
-0.736908
-0.755565
-0.773885
-0.791872
-0.809505
-0.826749
-0.843572
-0.859971
-0.876023
-0.891843
-0.907642
-0.923847
-0.940913
-0.959162
-0.980386
-1.00428
-1.03377
-1.0712
-1.11682
-1.18002
-1.25343
-1.34438
-1.44909
-1.55322
-1.67267
-1.77657
-1.88819
-1.99153
-2.07077
-2.1661
-2.21829
-2.28272
-2.33505
-2.3716
-2.43905
-2.48136
-2.58339
-2.70546
-2.81841
-2.97918
-3.24106
-3.2814
-3.48643
-4.01704
-2.18812
-4.23434
-1.9997
-1.20335
-4.82739
-5.60059
-7.34952
-9.26206
-9.69326
-11.9403
-32.0442
-34.6471
-105.471
-102.526
-192.36
-294.806
-277.336
-201.42
-149.452
-114.408
-66.298
-31.3673
-6.4323
18.7328
29.369
59.9646
76.37
94.8367
124.947
161.279
189.815
209.902
221.608
204.562
163.09
111.959
67.8561
42.5455
38.4283
50.416
58.496
52.8875
32.3162
4.61444
-5.46925
-15.3588
-72.7889
-89.8305
-100.067
-101.612
-94.6162
-79.6962
-60.5237
-38.271
-14.453
5.31375
15.9325
27.4432
37.2491
41.202
41.811
40.4742
38.0636
35.1214
32.101
29.33
26.993
24.9154
22.9345
20.9492
18.1231
16.7302
14.4253
14.3177
13.9716
13.5553
13.1043
12.6426
12.1881
11.7442
11.3078
10.8713
10.4495
10.0328
9.63001
9.22987
8.8521
8.53168
8.23098
7.82402
7.45501
7.0708
6.67257
6.23493
5.77784
5.2507
4.71576
4.03532
3.43868
2.65261
2.16136
0.852682
4.67272e-05
-0.00784172
-0.0169146
-0.0274191
-0.0394048
-0.0531305
-0.068394
-0.0854694
-0.104037
-0.124004
-0.145617
-0.166671
-0.188351
-0.207359
-0.227427
-0.24737
-0.26693
-0.290309
-0.318715
-0.341822
-0.339067
-0.35551
-0.386037
-0.418395
-0.448606
-0.479263
-0.509442
-0.53923
-0.569435
-0.600163
-0.631702
-0.663424
-0.69479
-0.725809
-0.75666
-0.787395
-0.817923
-0.848065
-0.877625
-0.906336
-0.933914
-0.959976
-0.984086
-1.00582
-1.02454
-1.03996
-1.05154
-1.0591
-1.06361
-1.06456
-1.06549
-1.07123
-1.08511
-1.12055
-1.17348
-1.24371
-1.32922
-1.40145
-1.48878
-1.53742
-1.58942
-1.61581
-1.59616
-1.60273
-1.53127
-1.48187
-1.39583
-1.30748
-1.21029
-1.19879
-1.20293
-1.23275
-1.44575
-1.53997
-1.91867
-1.56727
-1.92853
-2.36133
-3.32962
-4.04377
-6.8302
-5.91388
-10.9028
-9.2049
-11.6618
-24.8682
-26.9423
-57.893
-102.203
-160.688
-227.615
-284.153
-204.313
-145.262
-97.4724
-61.6242
-59.6725
-55.7408
-29.1166
6.77171
19.8102
56.9544
72.3256
75.1319
78.637
87.9195
103.364
125.425
149.501
159.874
160.599
144.034
110.454
70.9762
39.1365
23.875
19.4737
7.57699
-10.1141
-20.39
-30.0252
-33.3692
-37.1313
-57.7751
-75.5515
-86.9127
-91.5241
-88.7939
-78.6514
-62.1444
-42.248
-22.4058
-2.67825
10.9086
16.1959
31.2535
34.2917
34.9801
33.7628
31.4007
28.4498
25.4835
22.7884
20.4047
18.2578
16.3484
14.6106
12.9242
10.8774
9.89749
8.6335
8.09909
7.96733
7.63362
7.22357
6.78039
6.32617
5.85333
5.32858
4.82732
4.35061
3.89143
3.45297
3.0259
2.60318
2.07719
1.73433
1.28314
0.735247
0.458745
0.192438
-0.168701
-0.570842
-0.913616
-1.33673
-1.69756
-2.018
-2.25602
-2.50555
-2.74702
0.0522665
0.047692
0.0419673
0.0349614
0.0265434
0.0165978
0.00500849
-0.00832294
-0.0235113
-0.040657
-0.0598537
-0.0811564
-0.104514
-0.129696
-0.156407
-0.184068
-0.211814
-0.238465
-0.259111
-0.282883
-0.305738
-0.329258
-0.346562
-0.36671
-0.389498
-0.433492
-0.470544
-0.499002
-0.542581
-0.582216
-0.625472
-0.666839
-0.706489
-0.745943
-0.785739
-0.826308
-0.867444
-0.908115
-0.947607
-0.985373
-1.02088
-1.05316
-1.08084
-1.10306
-1.11687
-1.12216
-1.11505
-1.09543
-1.06126
-1.00844
-0.945695
-0.881093
-0.831585
-0.832891
-0.871004
-0.925868
-1.00772
-1.05918
-1.11789
-1.10288
-1.10608
-1.04
-0.871417
-0.856822
-0.545689
-0.377003
-0.342705
0.202437
0.35154
0.347491
0.82556
0.830564
-0.00552996
0.0849815
-1.30531
-3.03359
-2.56549
-7.99808
-6.00515
-9.27113
-11.8036
-9.002
-27.0499
-24.9061
-44.1352
-80.206
-104.541
-190.764
-296.1
-212.779
-98.4184
-27.0562
-12.6946
-11.9354
-26.6339
-30.6985
-9.7411
9.40902
20.1006
58.8263
61.651
57.9986
53.4733
49.9668
48.2691
49.0383
54.4798
61.7995
67.7593
80.1417
65.6653
37.042
11.9924
-8.87206
-22.2467
-30.0572
-35.1952
-36.6385
-32.8203
-32.0563
-31.5948
-31.4964
-37.3859
-49.4455
-57.9894
-61.5447
-59.6405
-52.6853
-41.4323
-26.3628
-9.8965
3.02874
8.60872
22.2141
24.8983
26.1609
25.0171
22.4227
19.0859
15.4309
12.3101
9.62185
7.39544
5.58147
4.09829
2.88048
1.83319
0.957618
0.306843
-0.0861362
-0.308857
-0.332684
-0.361139
-0.44666
-0.587714
-0.770067
-0.982485
-1.16861
-1.3112
-1.48473
-1.67401
-1.87301
-2.08247
-2.29462
-2.52277
-2.7586
-2.97005
-3.2171
-3.41865
-3.60517
-3.78388
-3.96192
-4.14854
-4.27626
-4.42514
-4.43571
-4.49898
-4.44071
-4.43608
-4.45854
0.0788577
0.0767399
0.0736324
0.0694131
0.0639586
0.0571381
0.0488171
0.0388576
0.0271178
0.0134552
-0.00226919
-0.0201808
-0.0403747
-0.0628904
-0.0876906
-0.114647
-0.143606
-0.174436
-0.20685
-0.240665
-0.274184
-0.304818
-0.319092
-0.339879
-0.36621
-0.39487
-0.415594
-0.438741
-0.465831
-0.512538
-0.593597
-0.63282
-0.669081
-0.717477
-0.763347
-0.810724
-0.863535
-0.911575
-0.955544
-0.997981
-1.03683
-1.07102
-1.09663
-1.11526
-1.11248
-1.1015
-1.05297
-0.977912
-0.87632
-0.713325
-0.524326
-0.317339
-0.277145
-0.334081
-0.397233
-0.435854
-0.614499
-0.720689
-0.730588
-0.75679
-0.607585
-0.540599
-0.297423
-0.0289932
0.206097
0.579472
1.24996
1.59574
1.28803
1.53532
0.873236
-0.787174
-1.85792
-2.21347
-3.73563
-5.01767
-8.69484
-11.0882
-13.6888
-25.4411
-30.3439
-31.9585
-67.0194
-77.4076
-118.08
-213.729
-237.725
-116.784
-6.95412
40.4764
65.6021
80.6272
51.6131
19.1584
-10.9906
-12.7527
-4.94535
4.39055
19.9967
36.5839
41.278
41.6695
38.1149
32.2428
25.8854
17.1957
4.13309
-3.42946
-5.59446
-11.372
-19.789
-22.2562
-29.3791
-33.5377
-33.0564
-29.3967
-24.6947
-19.8384
-15.7612
-13.7327
-12.7288
-12.7582
-15.1865
-26.3314
-28.3757
-27.6896
-22.9237
-13.9018
-4.38953
0.286037
13.8601
19.683
23.8302
25.5824
24.6715
22.011
18.4056
14.4794
10.6503
7.33692
4.37193
1.91029
-0.055094
-1.59689
-2.78428
-3.66323
-4.28139
-4.65071
-4.79509
-4.77318
-4.65188
-4.50732
-4.39643
-4.33634
-4.32952
-4.36426
-4.42898
-4.55382
-4.66541
-4.77316
-4.86945
-4.95217
-5.03799
-5.11206
-5.20376
-5.26631
-5.32828
-5.37959
-5.39863
-5.42079
-5.41787
-5.42621
-5.4058
-5.32388
-5.2299
-4.97064
-4.81926
-4.47921
-4.32189
-3.89807
0.0900005
0.0897436
0.0887076
0.0867891
0.083882
0.079869
0.0746243
0.0680143
0.0598986
0.0501305
0.0385593
0.025034
0.00941155
-0.00843243
-0.0285926
-0.051133
-0.0761059
-0.103584
-0.133639
-0.166174
-0.200675
-0.236309
-0.271764
-0.308464
-0.344967
-0.367965
-0.371551
-0.390829
-0.421446
-0.452468
-0.482423
-0.512726
-0.543501
-0.573544
-0.637912
-0.698119
-0.792355
-0.846713
-0.86247
-0.916276
-0.954592
-0.987403
-1.00477
-1.02031
-0.98259
-0.980333
-0.797588
-0.69251
-0.491148
-0.207604
0.0348578
0.239507
0.374327
0.361276
0.0743427
-0.255425
-0.400372
-0.554909
-0.631635
-0.449788
-0.373853
-0.0734257
0.116513
1.11869
0.805312
1.17315
0.3543
-0.0929021
-0.639616
-0.892693
-0.783677
-1.92909
-7.49174
-8.50329
-10.1042
-20.9959
-22.6951
-25.6026
-49.148
-42.9993
-59.8456
-92.3782
-101.028
-150.379
-97.5153
7.56898
83.8916
111.078
166.673
211.248
136.117
54.8954
9.2841
-30.2447
-34.018
-26.1951
-14.1802
-2.83024
5.92917
15.7091
18.4098
18.4089
15.1751
9.43165
-0.61655
-20.1768
-37.8852
-49.4663
-54.653
-51.9283
-43.2868
-38.4698
-33.2386
-26.0269
-17.4138
-7.04231
0.785589
6.78131
10.4348
11.865
12.0404
11.2427
7.30441
3.6841
3.07404
4.92459
8.60329
12.3044
18.1251
24.4645
29.6726
31.2604
30.7157
28.241
24.3097
19.5918
14.6988
10.0569
5.93186
2.44703
-0.380339
-2.58575
-4.23878
-5.4252
-6.21736
-6.67481
-6.85778
-6.8214
-6.62904
-6.3494
-6.04491
-5.76286
-5.5274
-5.34563
-5.21598
-5.12638
-5.06876
-5.03012
-5.00751
-4.9852
-4.96759
-4.94502
-4.93832
-4.92103
-4.92615
-4.89019
-4.8661
-4.8083
-4.72203
-4.61939
-4.49634
-4.40102
-4.25276
-4.05404
-3.83245
-3.4455
-3.20682
-2.75256
-2.54851
-1.94435
0.090662
0.0917589
0.0923044
0.0922158
0.09141
0.0897936
0.0872646
0.0837133
0.0790221
0.0730668
0.0657153
0.0568308
0.0462729
0.0339009
0.0195852
0.00319842
-0.0153752
-0.0362651
-0.0596087
-0.0854695
-0.113806
-0.144413
-0.177234
-0.212451
-0.249751
-0.285269
-0.318766
-0.35403
-0.396692
-0.398628
-0.391569
-0.408274
-0.435729
-0.477407
-0.509168
-0.541482
-0.580422
-0.615164
-0.650409
-0.676923
-0.732315
-0.782978
-0.811276
-0.822333
-0.801568
-0.741984
-0.638024
-0.412875
-0.300315
-0.0516545
0.473624
0.888325
1.01373
0.643937
0.490492
-0.047925
-0.14006
-0.466429
-0.70721
0.269184
-0.0644317
0.259356
-0.517658
-1.07465
-2.60609
-0.718716
-1.52586
-5.70378
-6.10851
-11.8662
-16.4602
-10.7914
-38.583
-33.0516
-45.971
-65.6763
-39.7262
-77.947
-67.393
-56.7746
-51.2779
-8.09972
93.9005
117.583
151.383
181.729
332.121
314.938
213.996
109.256
28.6865
-3.62359
-41.5455
-43.3436
-40.0589
-33.2561
-25.2667
-17.5455
-10.8494
-6.05338
-3.58913
-3.66089
-6.94896
-11.829
-28.3243
-45.968
-59.67
-68.2139
-68.6176
-60.3271
-44.6969
-31.3891
-17.909
-4.57362
6.2943
18.6466
25.454
30.1338
32.4568
32.5553
30.5285
26.2502
23.8306
22.8182
23.7589
26.3462
30.2921
35.4223
38.6773
40.1813
39.615
37.1133
33.3397
28.4645
22.9539
17.3514
12.0928
7.44838
3.54545
0.431657
-1.97292
-3.74624
-4.97872
-5.76095
-6.17343
-6.28964
-6.18184
-5.91825
-5.56444
-5.17795
-4.80282
-4.46622
-4.18059
-3.94762
-3.76247
-3.61318
-3.4922
-3.38559
-3.2916
-3.20015
-3.12212
-3.04627
-2.99684
-2.93751
-2.90529
-2.82586
-2.77286
-2.66841
-2.65038
-2.64603
-2.58638
-2.50406
-2.34837
-2.13816
-1.9106
-1.50306
-1.27784
-0.802357
-0.602588
0.0294424
0.0850561
0.0871434
0.0889108
0.0902962
0.0912426
0.0916834
0.0915488
0.0907606
0.0892308
0.0868754
0.0835878
0.0792711
0.0738224
0.0671035
0.0590457
0.0494792
0.0383292
0.0254779
0.0107064
-0.00589073
-0.0247176
-0.0455398
-0.0684523
-0.0937195
-0.121039
-0.14998
-0.179758
-0.211307
-0.24902
-0.28013
-0.305694
-0.333386
-0.359037
-0.419791
-0.397395
-0.38087
-0.385805
-0.416092
-0.440864
-0.502984
-0.514814
-0.550836
-0.560395
-0.564763
-0.567566
-0.465656
-0.508381
-0.302528
-0.0619638
0.0358149
1.03726
1.81867
1.99757
1.57013
0.960316
-0.104453
-0.418036
-0.7934
-0.986166
-2.37861
-1.89242
-3.1712
-2.87248
-0.686886
-14.1207
-10.2757
-17.0095
-26.2103
-40.6013
-51.0654
-74.044
-73.9893
-100.007
-112.933
-96.1843
-96.9122
-44.1186
12.1374
63.5043
141.943
151.949
172.385
215.715
339.701
393.065
351.191
266.956
164.053
75.4528
13.5968
-20.5736
-41.6493
-47.3159
-47.1916
-44.6065
-40.9265
-36.3465
-31.5859
-27.1743
-23.6866
-21.7714
-21.6878
-22.2192
-31.5056
-45.9081
-59.5666
-69.3109
-72.2546
-68.0605
-56.375
-37.799
-22.5498
-6.43068
7.92212
21.7597
32.2352
39.4079
43.8497
45.7145
45.5854
44.4654
43.585
43.4657
43.3986
44.0958
45.7152
47.5142
48.1122
47.8572
46.224
42.9592
38.3606
32.8426
26.8311
20.8021
15.1727
10.2163
6.06132
2.73828
0.085516
-1.87639
-3.24282
-4.11205
-4.57888
-4.73004
-4.64136
-4.38606
-4.02984
-3.62753
-3.22263
-2.84476
-2.51007
-2.22527
-1.98895
-1.79464
-1.63093
-1.49076
-1.36198
-1.24629
-1.13562
-1.04406
-0.958958
-0.904946
-0.838365
-0.800615
-0.711577
-0.661394
-0.551973
-0.514282
-0.469065
-0.418587
-0.351402
-0.223883
-0.045925
0.131893
0.499912
0.654538
1.08162
1.24011
1.81987
0.0771134
0.0800702
0.0829401
0.0856745
0.0882578
0.0906336
0.0927867
0.0946793
0.0962088
0.0974199
0.0981344
0.0983533
0.0981159
0.0969971
0.095521
0.0929359
0.0896207
0.0856289
0.0796634
0.0742909
0.0656463
0.0569418
0.0477814
0.0353158
0.0253248
0.00975095
-0.00327902
-0.0203307
-0.0410298
-0.0587529
-0.0831547
-0.101494
-0.125813
-0.157796
-0.184389
-0.205759
-0.21129
-0.268022
-0.240886
-0.364315
-0.291586
-0.379673
-0.29907
-0.286445
-0.334112
-0.085956
-0.573023
-0.0914375
-0.29504
0.180248
0.848521
1.59286
-0.0349624
1.49129
0.388188
0.289357
-3.92572
-2.68797
-3.49508
-6.58858
-7.48025
-13.6244
-16.2367
-28.0338
-44.6976
-57.062
-84.9827
-92.2459
-134.039
-171.092
-149.998
-162.527
-111.672
-46.7656
8.03557
30.4918
102.093
125.126
156.798
211.957
313.274
350.688
352.03
330.649
271.426
192.639
115.554
49.5498
7.49978
-25.163
-40.6566
-47.7345
-50.7563
-51.2727
-49.8976
-47.2695
-45.0673
-42.4103
-39.5345
-36.7569
-34.2381
-33.1512
-35.8599
-44.2396
-54.2161
-62.6319
-67.4004
-66.3229
-58.5748
-44.3316
-25.1147
-6.08263
10.0008
23.1597
38.2944
47.2834
53.397
56.424
57.1174
56.5202
55.8344
54.8162
53.2765
53.1559
53.8308
54.1397
53.8171
52.4818
50.0637
46.3762
41.5122
35.8163
29.7041
23.5998
17.8853
12.8318
8.57193
5.13391
2.48169
0.479884
-0.943801
-1.87448
-2.40078
-2.60656
-2.57048
-2.36025
-2.04068
-1.66642
-1.27857
-0.907796
-0.573014
-0.283256
-0.0411992
0.157228
0.319727
0.457402
0.576739
0.68719
0.784007
0.873945
0.94126
1.00047
1.02851
1.07376
1.09034
1.16081
1.18259
1.26966
1.30058
1.38017
1.43786
1.49928
1.62245
1.76529
1.92058
2.21207
2.32384
2.67325
2.77755
3.18715
0.0715601
0.075666
0.0799347
0.0842305
0.0887947
0.0932837
0.0980161
0.102963
0.107575
0.112915
0.117585
0.122417
0.128187
0.13142
0.138267
0.141106
0.146091
0.152186
0.150498
0.163592
0.155517
0.16648
0.178816
0.171857
0.20341
0.182457
0.20688
0.192785
0.190019
0.206202
0.170777
0.201476
0.164791
0.166274
0.168056
0.0999435
0.162538
0.0386811
0.0816029
-0.121455
0.0766256
-0.440982
-0.313668
-0.909377
-1.05889
-1.81394
-2.32558
-2.50449
-2.83269
-2.666
-3.526
-0.313316
-1.12022
-4.71184
3.83203
-5.28841
-7.74978
-13.9587
-18.8754
-21.6967
-41.3467
-62.6863
-70.6571
-111.153
-153.533
-165.423
-177.767
-162.014
-145.745
-100.469
-49.6662
-67.1759
-23.7714
50.9978
75.3608
115.089
205.24
241.389
254.245
269.804
279.052
263.863
229.193
183.96
130.216
77.613
35.5695
7.2332
-17.6021
-31.1732
-39.7701
-45.8955
-50.2223
-52.9538
-54.1382
-54.0846
-53.3998
-51.7264
-49.2548
-46.5074
-44.0276
-43.4204
-46.2308
-51.1839
-56.0455
-59.1068
-58.8052
-53.9029
-43.7601
-28.7028
-10.5395
7.24059
21.5074
35.1506
45.1735
52.0811
56.4191
58.668
59.6842
60.0759
59.3531
58.3728
57.5408
57.2142
57.0213
55.8919
53.941
51.1268
47.3803
42.692
37.2441
31.3804
25.4953
19.9382
14.973
10.7473
7.29363
4.5895
2.57333
1.13959
0.188945
-0.375335
-0.629866
-0.64364
-0.479428
-0.196462
0.149695
0.517316
0.876383
1.20623
1.49534
1.7389
1.93694
2.09543
2.22278
2.32974
2.42168
2.50511
2.57344
2.63266
2.66654
2.69186
2.68809
2.70546
2.69423
2.73711
2.72384
2.78189
2.77424
2.84435
2.88504
2.93726
3.06669
3.16407
3.33599
3.49553
3.64653
3.88484
3.92461
4.06286
0.074157
0.0800452
0.0860173
0.0918328
0.0994986
0.105227
0.113437
0.121237
0.127222
0.138321
0.142957
0.152114
0.164224
0.161417
0.1861
0.175432
0.195994
0.204224
0.188737
0.24301
0.17512
0.257772
0.190578
0.195938
0.253495
0.106468
0.283641
0.100291
0.208276
0.171117
0.0719833
0.212797
-0.022712
0.106023
-0.014095
-0.175037
-0.0862358
-0.270014
-0.427586
-2.16401
0.0569021
-1.89239
-2.69604
-2.11587
-7.19977
1.91733
-15.0068
-8.06273
-19.7564
-14.2984
-22.9329
-16.0594
-14.6139
-6.72285
-13.244
-28.9718
-12.4923
-63.0614
-51.1739
-119.797
-142.231
-155.543
-178.194
-134.299
-84.121
-59.2033
-62.5396
-64.7656
-64.9399
-10.5584
9.12632
40.8645
104.121
137.191
147.64
166.33
190.6
198.444
195.781
187.469
170.278
145.925
115.665
83.0821
52.9641
28.1047
9.59345
-4.61622
-16.9772
-25.5301
-33.2636
-40.1208
-46.0442
-50.9209
-54.6099
-57.0526
-58.1677
-58.022
-56.7201
-54.8722
-53.2609
-52.776
-53.4149
-54.2946
-54.4445
-52.8871
-48.6579
-40.9695
-29.6095
-15.0591
0.578187
15.4425
28.5412
39.7283
46.7556
51.9666
55.3631
57.392
58.7072
59.1013
58.1921
57.0995
56.0435
55.0548
53.7214
51.6468
48.9077
45.5504
41.5455
36.8732
31.6836
26.3324
21.189
16.5156
12.4744
9.12677
6.44507
4.39449
2.94123
1.95533
1.34785
1.04242
0.973344
1.08298
1.31529
1.62355
1.96878
2.31716
2.64393
2.9362
3.18714
3.3942
3.55917
3.68892
3.79181
3.87747
3.94941
4.01125
4.0558
4.0884
4.09375
4.09063
4.06145
4.0546
4.01864
4.0335
3.98768
4.01613
3.96917
4.01578
4.01574
4.05149
4.15992
4.22461
4.36776
4.46077
4.56143
4.68503
4.68754
4.43684
0.0292852
0.0308012
0.0256352
0.0260567
0.0287305
0.020233
0.0262801
0.0171574
0.0109126
0.0132678
-0.00938946
-0.0101891
-0.0151258
-0.0643223
-0.0210517
-0.105442
-0.104319
0.00925328
-0.255978
-0.100872
-0.375992
-0.0702343
-0.419307
-0.288497
-0.213067
-0.74019
0.0197536
-1.08772
-0.144345
-0.969927
-0.927833
-0.427536
-2.07577
-0.0846099
-2.78396
-0.972289
-2.39638
-3.88142
-2.90333
-7.54732
-5.34255
-11.0133
-10.4013
-13.6561
-19.011
-18.1981
-32.7039
-26.5034
-43.5899
-43.5356
-42.8137
-41.3804
-18.8935
-55.1475
-40.0802
-96.4895
-109.176
-132.102
-205.06
-124.408
-73.8914
-21.8988
8.71396
17.5868
21.903
26.129
50.6573
83.2655
73.7866
63.1078
57.8438
70.6523
95.3815
110.838
120.793
129.296
130.748
123.279
111.649
98.3159
84.187
68.0341
51.9064
37.4828
25.6428
16.1024
7.92173
0.763363
-7.38293
-14.5
-22.0404
-29.3489
-36.318
-42.7747
-48.5394
-53.4452
-57.2479
-59.8581
-61.2536
-61.5371
-61.0288
-59.8382
-57.9624
-55.2477
-51.4826
-46.3574
-39.515
-30.3311
-18.9884
-5.68021
6.72284
18.648
29.0695
36.7867
42.4997
46.5904
49.2553
50.7767
51.3597
50.8768
49.8373
48.6982
47.4766
46.1524
44.4743
42.3247
39.7969
36.9942
33.8561
30.1442
25.8789
21.5274
17.4465
13.8202
10.7447
8.23098
6.21584
4.73256
3.72308
3.05223
2.66509
2.50766
2.52945
2.68171
2.91773
3.20664
3.51984
3.82548
4.10778
4.35738
4.56952
4.74289
4.88047
4.98893
5.07562
5.14795
5.20701
5.2541
5.28255
5.29661
5.28382
5.26333
5.22073
5.1973
5.14493
5.13491
5.06525
5.06562
4.98774
5.00826
4.96283
4.98043
5.03657
5.05835
5.13803
5.17851
5.17655
5.23882
5.08562
4.48368
-0.268268
-0.35005
-0.456881
-0.453065
-0.522534
-0.558654
-0.593692
-0.681303
-0.707991
-0.803282
-0.865547
-0.941802
-1.01883
-1.13831
-1.12871
-1.33604
-1.19536
-1.49336
-1.35974
-1.51987
-1.65216
-1.4853
-1.92204
-1.60074
-1.97368
-1.99713
-1.84524
-2.4768
-1.9151
-2.60619
-2.57208
-2.26693
-3.6454
-2.04744
-4.31216
-2.86502
-4.10981
-4.14955
-1.5618
-5.42265
0.101216
-3.3532
-2.50678
-0.0384889
-6.09774
1.42986
-2.6744
-3.27347
10.7807
40.1549
13.5283
-7.57744
-69.8361
-195.626
-231.311
-252.931
-232.081
-87.7338
17.0877
78.7463
214.883
269.542
234.223
157.793
100.138
79.7752
65.001
42.8513
27.4783
24.0054
28.8306
38.428
47.9159
53.774
56.4354
55.6714
50.9814
45.2203
40.0251
35.5624
31.4945
27.0985
23.351
20.2151
17.3377
14.3441
11.0597
7.32651
3.12156
-1.40798
-7.11467
-12.8603
-18.8808
-25.0068
-31.1608
-37.2872
-43.1894
-48.6225
-53.2891
-56.6598
-58.4874
-58.4126
-56.2675
-51.9382
-45.6701
-37.7915
-29.3552
-21.3092
-12.265
-2.56579
5.81147
13.2916
19.868
24.6204
27.9945
30.0216
31.4267
32.1782
32.3044
32.0147
31.6045
31.2072
30.7756
30.2792
29.618
28.7506
27.7821
26.8644
25.9473
24.441
21.6812
18.5296
15.5562
12.9145
10.6642
8.80149
7.30687
6.18515
5.38445
4.84607
4.529
4.39163
4.39587
4.50466
4.68318
4.90307
5.13787
5.36935
5.58418
5.77303
5.93129
6.05886
6.15927
6.23728
6.29756
6.34385
6.37525
6.3919
6.38896
6.36957
6.32782
6.27958
6.21369
6.15691
6.07352
6.0158
5.90889
5.85421
5.7302
5.68933
5.56839
5.52749
5.45513
5.37917
5.30212
5.22022
4.97983
4.94151
4.36194
3.17445
0.923623
1.00691
1.08891
1.185
1.284
1.38947
1.50704
1.62664
1.76053
1.90065
2.04879
2.21398
2.38112
2.56949
2.76576
2.96695
3.20901
3.43021
3.70622
3.96675
4.26378
4.58314
4.90004
5.27955
5.63843
6.067
6.49594
6.97534
7.48935
8.03649
8.66819
9.27879
10.0981
10.8219
11.7569
12.9803
13.6723
15.8057
16.8857
18.6291
22.6598
23.0821
28.4829
35.6118
34.5997
49.3498
67.6901
58.0333
87.6408
216.884
205.581
90.6473
0.26782
-66.7541
-126.518
-65.5101
-1.64865
42.1335
12.0287
33.7975
55.6987
51.0937
35.4453
21.7781
14.3831
10.3981
2.45156
0.390391
0.964236
2.83092
5.33189
7.78612
9.63021
10.678
10.9985
10.5587
10.2563
10.0555
9.66682
9.07656
8.24144
7.18379
5.96692
4.54444
2.96094
1.08829
-1.04218
-0.985091
-0.919628
-1.17665
-1.66833
-2.52623
-4.63833
-9.28439
-12.4487
-15.6654
-18.6881
-21.1625
-22.7006
-22.9801
-21.8081
-19.1486
-15.1684
-10.1711
-4.43034
0.521359
4.61956
10.1063
14.5141
17.8371
19.8752
20.696
20.247
18.0785
14.2158
4.92251
-3.03484
-2.35539
-1.59899
-0.79081
0.065331
0.960071
1.87174
2.79604
3.72452
4.53378
5.16469
5.94729
6.50232
6.55457
6.57571
6.59978
6.53083
6.37766
6.15404
5.87395
5.55476
5.21437
4.8662
4.52284
4.19488
3.89009
3.61415
3.36998
3.15809
2.97728
2.82591
2.70164
2.60117
2.52076
2.45699
2.40681
2.36735
2.33581
2.30958
2.28649
2.26457
2.24275
2.21958
2.19497
2.16781
2.13967
2.10811
2.07623
2.03891
2.00335
1.95916
1.92064
1.86978
1.82857
1.77259
1.72233
1.66444
1.59302
1.52961
1.43269
1.34553
1.20268
1.07897
0.555068
-5.06906
-4.74994
-4.70623
-4.64655
-4.53259
-4.50567
-4.46252
-4.4886
-4.43842
-4.45662
-4.28002
-4.30935
-4.16784
-3.95151
-3.37216
-3.40491
-3.29633
-3.11129
-2.44801
-1.93491
-0.846998
-0.648327
-0.620493
-1.03722
-2.12587
0.802735
0.898723
1.04258
1.12202
1.26019
1.35007
1.36205
1.40322
1.40838
1.41303
1.29367
1.26712
1.12911
1.15575
1.13028
1.18264
1.24984
1.34726
1.39179
1.54164
2.04603
2.31699
2.50476
2.23216
0.731744
-0.66656
-0.678193
-0.696698
-0.743976
-0.764148
-0.781195
-0.864779
-0.927734
-0.979015
-1.0529
-1.20389
-1.24932
-1.28483
-1.2766
-1.1979
-1.11499
-0.90502
-0.835978
-0.755518
-0.599349
-0.0281202
0.121248
0.0875275
-0.614185
-2.82107
-2.07533
-2.10593
-2.1404
-2.18568
-2.21239
-2.24936
-2.27549
-2.38048
-2.40458
-2.47808
-2.51861
-2.54912
-2.58576
-2.57886
-2.50735
-2.39207
-2.11398
-2.01784
-1.89434
-1.76949
-1.33013
-1.20417
-1.27469
-1.9917
-4.29953
-2.81157
-2.81441
-2.81971
-2.83227
-2.83831
-2.85245
-2.88118
-2.93988
-2.95129
-2.96744
-2.99149
-2.99947
-3.00966
-3.00381
-2.94304
-2.79626
-2.52994
-2.42236
-2.25519
-2.15053
-1.83708
-1.76985
-1.89073
-2.51401
-4.68438
-3.02869
-3.02565
-3.01133
-3.00343
-2.9958
-2.99578
-3.00705
-3.01929
-3.00818
-2.99792
-2.99381
-2.9766
-2.96962
-2.99018
-2.90374
-2.74994
-2.51795
-2.39579
-2.21763
-2.12584
-1.90688
-1.90555
-2.08062
-2.6895
-4.63923
-2.94954
-2.94439
-2.92038
-2.90436
-2.89011
-2.87333
-2.86263
-2.83619
-2.7952
-2.76296
-2.74061
-2.71134
-2.69846
-2.72555
-2.6388
-2.4955
-2.29693
-2.16013
-1.99131
-1.9127
-1.77025
-1.8288
-2.099
-2.65599
-4.41205
-2.6896
-2.68392
-2.6583
-2.64138
-2.62224
-2.58229
-2.54826
-2.48294
-2.42078
-2.3765
-2.34736
-2.31761
-2.30682
-2.33674
-2.25312
-2.13763
-1.97297
-1.82913
-1.68228
-1.61744
-1.54196
-1.64499
-2.00615
-2.56137
-4.21323
-2.30689
-2.3035
-2.28268
-2.26829
-2.23852
-2.16707
-2.11155
-2.013
-1.94709
-1.90544
-1.88077
-1.85842
-1.85628
-1.8847
-1.88167
-1.78973
-1.631
-1.46144
-1.33003
-1.26067
-1.26092
-1.39581
-1.85331
-2.44174
-4.04233
-1.827
-1.83265
-1.82094
-1.80854
-1.75423
-1.64972
-1.58073
-1.52462
-1.48471
-1.45775
-1.44367
-1.43359
-1.44276
-1.47019
-1.53476
-1.45162
-1.27735
-1.06817
-0.946514
-0.870356
-0.927618
-1.08999
-1.67806
-2.25944
-3.79378
-1.24579
-1.28479
-1.28257
-1.26589
-1.17062
-1.09543
-1.03793
-1.03797
-1.03329
-1.02755
-1.02886
-1.03595
-1.06083
-1.09959
-1.15324
-1.0672
-0.882892
-0.649345
-0.550616
-0.466218
-0.573879
-0.791524
-1.45511
-2.0187
-3.45903
-0.611393
-0.644882
-0.664528
-0.632207
-0.54172
-0.524196
-0.499754
-0.505899
-0.522292
-0.536861
-0.555783
-0.580712
-0.623295
-0.681819
-0.736464
-0.647031
-0.459436
-0.219472
-0.135225
-0.0739228
-0.220986
-0.500066
-1.19218
-1.72873
-3.05689
0.103255
0.0789705
0.0365653
0.0966506
0.116576
0.100756
0.0938273
0.0703002
0.0364212
0.0054205
-0.0321148
-0.074465
-0.13394
-0.216047
-0.282589
-0.197365
-0.0163174
0.212916
0.280564
0.304513
0.119145
-0.219565
-0.89997
-1.39851
-2.61008
0.916977
0.88387
0.83046
0.862599
0.832993
0.775773
0.740789
0.689322
0.633905
0.589802
0.53262
0.471216
0.398264
0.293007
0.210953
0.279923
0.440727
0.641564
0.685688
0.660266
0.43347
0.0454003
-0.589307
-1.04071
-2.13328
1.83524
1.76765
1.71147
1.65285
1.59324
1.49462
1.43817
1.35469
1.26522
1.2138
1.13542
1.04629
0.965647
0.839311
0.740633
0.779976
0.906015
1.06113
1.07295
0.984231
0.708236
0.290662
-0.271961
-0.670342
-1.6431
2.82744
2.72492
2.64459
2.5149
2.40269
2.27598
2.17392
2.06373
1.94357
1.87634
1.77331
1.63556
1.55811
1.41122
1.29707
1.29288
1.37067
1.46807
1.4372
1.2683
0.926811
0.51704
0.0389223
-0.303545
-1.15754
3.84699
3.7182
3.59443
3.42383
3.26129
3.10059
2.9591
2.81568
2.67372
2.56116
2.42242
2.25784
2.16755
1.99202
1.86759
1.80226
1.82641
1.8557
1.77284
1.50652
1.07175
0.731141
0.329727
0.0430648
-0.693864
4.85269
4.69933
4.52943
4.3379
4.14202
3.9523
3.77711
3.59929
3.42596
3.26839
3.08364
2.89305
2.74725
2.56042
2.43635
2.28672
2.2651
2.21467
2.07045
1.693
1.12899
0.946171
0.583836
0.354154
-0.268437
5.6014
5.46067
5.30413
5.12958
4.9455
4.75852
4.57139
4.37192
4.16929
3.96885
3.73415
3.4944
3.29049
3.10006
2.8909
2.77306
2.6816
2.52478
2.32123
1.82524
1.1945
1.06651
0.788802
0.617386
0.103852
5.62514
5.65903
5.64552
5.59258
5.50603
5.38621
5.23535
5.04905
4.83956
4.6115
4.33415
4.03727
3.7799
3.56258
3.28462
3.17806
3.03265
2.77767
2.51688
1.90618
1.22726
1.13188
0.939762
0.823587
0.410952
5.38062
5.53737
5.65878
5.74233
5.77847
5.76022
5.68472
5.54983
5.36729
5.14018
4.84092
4.49781
4.1922
3.93827
3.60352
3.47851
3.30677
2.96285
2.64889
1.93834
1.22324
1.15167
1.03434
0.967356
0.644652
5.38307
5.52388
5.6651
5.79506
5.89483
5.94728
5.93963
5.86481
5.72808
5.52648
5.23006
4.86219
4.51465
4.21304
3.84663
3.66665
3.50119
3.06119
2.70652
1.92597
1.18747
1.13249
1.07401
1.0481
0.80171
5.58044
5.66526
5.76557
5.87711
5.98141
6.05671
6.08372
6.05004
5.95343
5.78393
5.50623
5.13471
4.7535
4.39387
4.003
3.79362
3.57013
3.05701
2.68227
1.87391
1.12719
1.08268
1.06474
1.07038
0.884674
5.8696
5.90162
5.94937
6.01809
6.0949
6.15927
6.19024
6.17229
6.09741
5.95121
5.69532
5.33436
4.92771
4.49711
3.99867
3.81803
3.52698
2.94812
2.57723
1.78641
1.05062
1.01364
1.0176
1.04456
0.903083
6.22565
6.20817
6.20379
6.22256
6.25689
6.29041
6.30388
6.28063
6.20829
6.07043
5.83037
5.48624
5.06112
4.54615
3.98987
3.7849
3.41556
2.74904
2.40302
1.66715
0.96691
0.939281
0.94837
0.986558
0.873862
6.64975
6.58124
6.52646
6.49368
6.47845
6.46933
6.45092
6.40704
6.32175
6.17745
5.94336
5.61599
5.17786
4.57488
3.95816
3.71145
3.24409
2.48925
2.18001
1.52034
0.886605
0.875126
0.876316
0.916821
0.82084
7.14756
7.02638
6.92246
6.83765
6.76896
6.70968
6.6494
6.57387
6.46439
6.30185
6.0635
5.74885
5.30177
4.62155
3.91402
3.61826
3.05543
2.21478
1.93085
1.35404
0.820861
0.836032
0.821707
0.858014
0.772701
7.78351
7.60799
7.45147
7.30839
7.17717
7.05638
6.94154
6.82223
6.67792
6.4864
6.23366
5.92528
5.47136
4.72718
3.8728
3.51847
2.90864
1.94416
1.65062
1.1615
0.773449
0.831556
0.800103
0.828499
0.756905
8.6138
8.39057
8.17842
7.96891
7.76397
7.56848
7.38464
7.2091
7.02172
6.79315
6.51431
6.19961
5.73949
4.97316
3.93986
3.45954
2.86237
1.77726
1.36582
0.948196
0.755851
0.87899
0.843331
0.866076
0.821855
9.67141
9.39823
9.12322
8.83902
8.55196
8.27303
8.01124
7.77506
7.54656
7.28219
6.96898
6.63276
6.16869
5.39635
4.31269
3.42731
2.99569
1.77561
1.06864
0.761945
0.754701
0.955064
0.947721
0.977176
0.982657
11.1773
10.8161
10.447
10.0629
9.67339
9.29574
8.94465
8.64457
8.37624
8.07114
7.70146
7.31059
6.81613
6.01427
4.79961
3.64486
3.18144
1.79297
0.7146
0.559842
0.711046
1.00742
1.08029
1.13688
1.22083
13.3689
12.8651
12.3478
11.8211
11.2951
10.7889
10.3319
9.94743
9.60319
9.20297
8.70608
8.16495
7.55024
6.6386
5.26193
3.93758
3.38095
1.72682
0.234619
0.213255
0.556007
0.96865
1.18924
1.29623
1.4925
15.767
15.1468
14.4987
13.8355
13.1852
12.5713
11.9968
11.4661
10.9314
10.3237
9.61252
8.86332
8.05636
6.97963
5.44464
4.1444
3.45237
1.22514
-0.232046
-0.294953
0.230348
0.774537
1.22024
1.39504
1.74729
16.8198
16.3511
15.8125
15.2017
14.5428
13.8626
13.1599
12.4232
11.6855
10.892
9.98691
9.0349
8.05509
6.85877
5.35481
4.1943
3.29023
0.506007
-0.952859
-1.001
-0.308253
0.380564
1.12754
1.36776
1.94834
16.2651
16.0975
15.7916
15.3423
14.7709
14.1167
13.373
12.4766
11.6629
10.8038
9.80621
8.71576
7.62511
6.3652
4.86599
4.0952
2.74349
-0.386862
-1.84451
-1.91871
-1.08198
-0.237821
0.876515
1.13509
2.08805
14.48
14.569
14.5052
14.2688
13.8718
13.3291
12.6354
11.9845
11.2727
10.4161
9.34327
8.15489
6.95049
5.65599
4.4476
3.56815
1.91425
-1.41668
-2.90188
-3.06041
-2.10122
-1.08485
0.427634
0.773591
2.06783
12.1933
12.5016
12.6679
12.656
12.4679
12.0993
11.5715
11.1067
10.4901
9.66061
8.52529
7.30022
6.13275
4.83765
3.98852
2.54127
0.864151
-2.49545
-4.16024
-4.45836
-3.36598
-2.16629
-0.242671
0.225147
1.82735
10.1676
10.6067
10.9237
11.0805
11.0716
10.8863
10.5274
10.0924
9.56427
8.79084
7.6029
6.35218
5.03886
4.20966
3.02225
1.35767
-0.440405
-3.67966
-5.69975
-6.13724
-4.89257
-3.50679
-1.17559
-0.612608
1.26746
9.14642
9.52536
9.84734
10.053
10.1328
10.0795
9.8159
9.38367
8.90829
8.16228
6.83165
5.4148
4.2424
3.41774
1.95636
0.0610066
-1.94787
-4.87283
-7.55773
-8.14027
-6.73571
-5.17619
-2.46637
-1.90113
0.21358
9.3113
9.58547
9.83014
9.9764
10.0363
10.0224
9.75203
9.24648
8.77211
8.02469
6.39585
4.57283
3.82864
2.31062
0.800137
-1.19369
-3.05353
-6.27284
-9.43804
-10.4683
-9.03972
-7.32674
-4.32163
-3.93657
-1.66155
10.4111
10.549
10.6884
10.7266
10.7041
10.6701
10.3255
9.66479
9.12772
8.33786
6.24015
4.11114
3.34774
1.30305
-0.736423
-2.64716
-4.29265
-7.50355
-10.8084
-12.7634
-11.7237
-10.2298
-7.14439
-7.27274
-4.96862
11.469
11.5513
11.6339
11.5893
11.4857
11.4161
10.9934
10.1587
9.48551
8.57116
6.1704
3.46917
2.43975
0.176474
-2.1866
-4.83142
-5.89142
-8.94458
-12.2565
-15.0293
-14.8769
-14.2215
-11.486
-12.6886
-10.5989
10.7013
10.8904
11.0589
11.083
11.0284
10.997
10.5563
9.6242
8.7583
7.67043
5.45051
2.58822
0.326416
-1.20306
-3.91078
-7.65463
-8.60341
-11.2674
-14.0318
-18.6728
-19.1092
-18.8938
-17.1331
-20.0293
-18.5578
7.00944
7.37682
7.72085
7.91549
7.99394
8.03278
7.62034
6.75975
5.79687
4.55927
2.4617
-0.233669
-3.04794
-5.40738
-7.15117
-11.2216
-12.6034
-14.472
-16.9471
-21.1621
-22.2143
-22.6369
-22.3653
-27.1466
-26.6007
1.19471
1.78307
2.30145
2.62806
2.77592
2.80243
2.5149
1.8929
0.934647
-0.471492
-2.7471
-5.44617
-8.20966
-10.6239
-13.2597
-14.6727
-14.8677
-14.9948
-18.2171
-21.1153
-22.92
-24.4735
-25.8108
-31.7403
-32.6306
-2.58759
-2.31692
-2.01317
-1.82533
-1.8224
-1.95745
-2.40138
-3.09181
-4.19041
-5.67061
-7.51372
-9.56953
-11.7879
-13.8737
-15.6089
-15.4103
-13.7652
-12.6026
-15.6521
-19.9453
-21.8383
-23.8522
-26.1997
-32.0742
-36.6322
-4.10524
-4.14339
-4.15645
-4.27225
-4.50352
-4.91628
-5.5344
-6.25219
-7.37261
-8.70935
-9.98807
-11.3134
-12.8323
-14.1979
-14.8522
-13.2112
-10.4109
-8.72141
-12.078
-16.7434
-20.0978
-21.2201
-24.4356
-30.7067
-37.0116
-4.09375
-4.22807
-4.47911
-5.06416
-5.36121
-6.05587
-6.77298
-7.50957
-8.51492
-9.59598
-10.3405
-11.0377
-12.2171
-12.9814
-12.7313
-9.99361
-6.48513
-4.49729
-8.10124
-12.9322
-16.8041
-17.9709
-21.3718
-28.135
-35.2742
-2.40291
-2.98035
-3.61977
-4.42096
-5.01048
-6.02015
-6.59327
-7.52475
-8.54627
-9.3869
-9.68175
-9.90049
-10.7126
-11.0348
-10.0244
-6.42886
-2.52711
-0.813007
-4.48811
-9.19586
-13.1164
-14.3422
-17.9638
-25.0467
-32.2219
-0.22976
-0.912149
-1.72247
-3.02023
-3.91555
-4.89866
-5.94566
-6.54808
-7.57363
-8.31377
-8.41746
-8.40981
-9.03475
-9.04172
-7.38493
-3.12238
0.848521
2.33162
-1.24667
-5.68082
-9.40338
-10.6518
-14.5097
-21.7738
-28.3941
1.66449
0.937093
0.0347905
-1.39113
-2.50306
-3.56423
-4.78755
-5.65196
-6.21642
-6.95544
-6.98195
-6.85663
-7.39017
-7.131
-4.86663
-0.170365
3.68742
4.97371
1.65749
-2.47082
-5.81509
-7.02261
-11.2381
-18.384
-24.0231
3.06431
2.44489
1.49797
0.13046
-1.07226
-2.22539
-3.59086
-4.51687
-5.08018
-5.39007
-5.5252
-5.32319
-5.78904
-5.307
-2.58221
2.35263
6.04516
7.12785
4.19528
0.414754
-2.3555
-3.4806
-8.24102
-14.7529
-19.1722
3.98244
3.62345
2.69728
1.38004
0.177815
-1.01865
-2.43809
-3.37698
-3.82704
-4.01361
-4.01295
-3.8287
-4.16322
-3.42901
-0.61866
4.45849
7.95249
8.82723
6.3549
3.0633
1.11278
0.0711769
-5.58509
-10.1279
-13.9205
4.64334
4.51165
3.63426
2.33586
1.21844
0.0456835
-1.30599
-2.16812
-2.4916
-2.5758
-2.44258
-2.32686
-2.36269
-1.47866
1.18307
6.28573
9.49356
10.1939
8.28832
5.77074
4.99562
3.82263
-1.73105
-5.09395
-7.79952
5.19764
5.20536
4.34776
3.1562
2.19428
1.15348
0.0225152
-0.641563
-0.814695
-0.787386
-0.597089
-0.46089
-0.201598
1.03064
2.959
8.24509
11.0576
11.6855
10.4717
9.51331
9.40384
8.31139
3.42566
1.22906
-0.239547
5.02042
5.21994
4.69667
3.97436
3.36501
2.64499
1.93164
1.60687
1.63017
1.79782
2.04155
2.31171
3.01971
4.64453
7.5841
11.4296
13.7966
14.468
14.1327
13.6963
13.709
12.297
9.01265
8.03639
8.12093
1.42144
2.15727
2.42281
2.40364
2.33316
2.21124
2.1133
2.11289
2.1939
2.32561
2.52567
2.8443
3.39633
4.17325
5.07816
5.8556
6.36379
6.3564
6.60724
6.48924
6.63346
6.14369
6.21673
5.75432
6.43329
)
;

boundaryField
{
    inlet
    {
        type            calculated;
        value           uniform 0;
    }
    outlet
    {
        type            calculated;
        value           nonuniform List<scalar> 
57
(
-2.12587
0.731744
-2.82107
-4.29953
-4.68438
-4.63923
-4.41205
-4.21323
-4.04233
-3.79378
-3.45903
-3.05689
-2.61008
-2.13328
-1.6431
-1.15754
-0.693864
-0.268437
0.103852
0.410952
0.644652
0.80171
0.884674
0.903083
0.873862
0.82084
0.772701
0.756905
0.821855
0.982657
1.22083
1.4925
1.74729
1.94834
2.08805
2.06783
1.82735
1.26746
0.21358
-1.66155
-4.96862
-10.5989
-18.5578
-26.6007
-32.6306
-36.6322
-37.0116
-35.2742
-32.2219
-28.3941
-24.0231
-19.1722
-13.9205
-7.79952
-0.239547
8.12093
6.43329
)
;
    }
    upperWall
    {
        type            calculated;
        value           nonuniform List<scalar> 
223
(
-0.00423143
0.00444373
-0.00349214
0.0131949
0.00913524
0.0427078
0.0440506
0.103553
0.108286
0.201076
0.263625
0.166728
0.431728
0.461821
0.544252
0.608466
0.721057
0.839954
0.923623
1.00691
1.08891
1.185
1.284
1.38947
1.50704
1.62664
1.76053
1.90065
2.04879
2.21398
2.38112
2.56949
2.76576
2.96695
3.20901
3.43021
3.70622
3.96675
4.26378
4.58314
4.90004
5.27955
5.63843
6.067
6.49594
6.97534
7.48935
8.03649
8.66819
9.27879
10.0981
10.8219
11.7569
12.9803
13.6723
15.8057
16.8857
18.6291
22.6598
23.0821
28.4829
35.6118
34.5997
49.3498
67.6901
58.0333
87.6408
216.884
205.581
90.6473
0.26782
-66.7541
-126.518
-65.5101
-1.64865
42.1335
12.0287
33.7975
55.6987
51.0937
35.4453
21.7781
14.3831
10.3981
2.45156
0.390391
0.964236
2.83092
5.33189
7.78612
9.63021
10.678
10.9985
10.5587
10.2563
10.0555
9.66682
9.07656
8.24144
7.18379
5.96692
4.54444
2.96094
1.08829
-1.04218
-0.985091
-0.919628
-1.17665
-1.66833
-2.52623
-4.63833
-9.28439
-12.4487
-15.6654
-18.6881
-21.1625
-22.7006
-22.9801
-21.8081
-19.1486
-15.1684
-10.1711
-4.43034
0.521359
4.61956
10.1063
14.5141
17.8371
19.8752
20.696
20.247
18.0785
14.2158
4.92251
-3.03484
-2.35539
-1.59899
-0.79081
0.065331
0.960071
1.87174
2.79604
3.72452
4.53378
5.16469
5.94729
6.50232
6.55457
6.57571
6.59978
6.53083
6.37766
6.15404
5.87395
5.55476
5.21437
4.8662
4.52284
4.19488
3.89009
3.61415
3.36998
3.15809
2.97728
2.82591
2.70164
2.60117
2.52076
2.45699
2.40681
2.36735
2.33581
2.30958
2.28649
2.26457
2.24275
2.21958
2.19497
2.16781
2.13967
2.10811
2.07623
2.03891
2.00335
1.95916
1.92064
1.86978
1.82857
1.77259
1.72233
1.66444
1.59302
1.52961
1.43269
1.34553
1.20268
1.07897
0.555068
1.42144
2.15727
2.42281
2.40364
2.33316
2.21124
2.1133
2.11289
2.1939
2.32561
2.52567
2.8443
3.39633
4.17325
5.07816
5.8556
6.36379
6.3564
6.60724
6.48924
6.63346
6.14369
6.21673
5.75432
6.43329
)
;
    }
    lowerWall
    {
        type            calculated;
        value           nonuniform List<scalar> 
250
(
0.00631931
-0.00714772
0.00343376
-0.0355157
-0.0379073
-0.133086
-0.151691
-0.311958
-0.391325
-0.554007
-0.754228
-1.0298
-1.23458
-1.61605
-2.13483
-2.32011
-2.40674
-4.14994
-0.040073
-0.0769337
-0.137052
-0.172784
-0.134633
-0.00758351
0.217902
0.361639
0.553827
0.571862
0.477851
0.379253
0.261218
0.135739
-0.174949
-0.664971
-1.02683
-1.4126
-1.79257
-2.04113
-2.28708
-2.17934
-2.15177
-2.17538
-1.79453
-2.30023
-5.00042
-0.040073
-0.730178
-1.10441
-1.41607
-1.72497
-2.00757
-2.23957
-2.41955
-2.56114
-2.68342
-2.80223
-2.92822
-3.06483
-3.21514
-3.3817
-3.56584
-3.76707
-3.98325
-4.21205
-4.4534
-4.71145
-4.99392
-5.3108
-5.67593
-6.10148
-6.59497
-7.12971
-7.76274
-8.54223
-9.49981
-10.5321
-11.6326
-12.7465
-13.7109
-14.2458
-13.5094
-10.8403
-5.39387
3.40124
15.0048
27.9619
40.5653
51.6442
60.8351
68.3066
74.4038
79.4582
83.7358
87.513
90.9359
93.8175
96.4421
98.5715
100.165
101.179
101.33
100.757
100.172
100.052
99.6878
98.7262
98.4378
98.0729
100.19
97.9172
99.3351
100.951
106.747
108.946
117.337
124.565
131.008
140.563
150.482
156.664
162.757
169.011
174.219
178.165
179.896
178.521
172.118
162.008
147.776
129.636
106.82
81.5992
70.4631
67.2566
62.7878
56.2577
49.7089
43.7257
38.7151
34.1706
30.1847
26.6255
23.3678
20.3688
17.6361
15.3094
13.3426
11.6723
10.3665
9.52786
8.97781
8.59273
8.38629
8.23127
8.09215
8.16383
8.33621
8.40107
8.34748
8.22468
7.97601
7.57539
7.0278
6.37722
5.71077
4.96701
4.2552
3.60975
2.96339
2.41587
1.89657
1.35539
0.758071
0.150785
-0.498628
-1.26676
-1.67495
-2.43226
-3.16818
-3.80026
-4.39959
-4.93013
-5.41021
-5.86998
-6.27535
-6.60389
-6.87532
-7.12014
-7.33408
-7.49172
-7.56983
-7.56089
-7.4644
-7.31574
-7.16042
-7.01985
-6.89333
-6.81109
-6.77832
-6.75232
-6.71238
-6.70412
-6.69986
-6.69378
-6.7504
-6.65765
-6.35304
-6.3416
-6.34223
-6.3193
-6.29538
-6.2584
-6.23103
-6.19103
-6.16183
-6.11473
-6.08231
-6.01098
-5.99975
-5.84533
-5.95637
-5.60389
-5.90531
-5.40906
-5.77447
-5.06906
-4.74994
-4.70623
-4.64655
-4.53259
-4.50567
-4.46252
-4.4886
-4.43842
-4.45662
-4.28002
-4.30935
-4.16784
-3.95151
-3.37216
-3.40491
-3.29633
-3.11129
-2.44801
-1.93491
-0.846998
-0.648327
-0.620493
-1.03722
-2.12587
)
;
    }
    frontAndBack
    {
        type            empty;
    }
}


// ************************************************************************* //
